#ZVView-data-copy:  31-Jul-2018 05:01:26
#=======================================
#
#name:   TENDL-2017: XE-125(N,NON)
#X.axis: Incident Energy
#Y.axis: Cross Section
#wdata:  2
#ldata:  5607
#data...
#            X            Y
#          MeV        barns
         1e-11      2112.97
   1.10304e-11      2011.87
   1.21669e-11      1915.61
   1.34206e-11      1823.96
   1.48034e-11      1736.69
   1.63287e-11       1653.6
   1.80111e-11      1574.49
   1.98669e-11      1499.16
   2.19139e-11      1427.43
   2.41719e-11      1359.14
   2.66625e-11      1294.12
   2.94097e-11      1232.21
     3.244e-11      1173.26
   3.57825e-11      1117.14
   3.94694e-11       1063.7
   4.35362e-11      1012.82
   4.80221e-11      964.374
   5.29701e-11      918.247
    5.8428e-11      874.329
   6.44483e-11      832.514
   7.10888e-11        792.7
   7.84136e-11      754.793
   8.64931e-11      718.701
   8.77133e-11      713.996
   9.54051e-11      684.337
    9.8116e-11      675.314
   1.05235e-10      651.619
   1.09752e-10      638.641
   1.16078e-10      620.468
   1.22769e-10      603.877
   1.28039e-10      590.809
   1.37329e-10      570.923
   1.41231e-10       562.57
   1.53616e-10      539.689
   1.55784e-10      535.685
   1.71835e-10      510.088
    1.8954e-10      485.717
   1.92215e-10       482.54
    2.0907e-10      462.515
   2.18044e-10      453.312
   2.30612e-10      440.424
   2.47345e-10      425.614
   2.54374e-10      419.393
   2.80584e-10      399.371
   3.09494e-10      380.309
   3.18288e-10      375.304
   3.41383e-10      362.161
   3.66154e-10      349.994
   3.76558e-10      344.884
   4.15358e-10      328.437
   4.21218e-10      326.293
   4.58155e-10      312.779
   4.91398e-10      302.283
   5.05362e-10      297.874
   5.57433e-10      283.685
   5.73273e-10       279.96
   6.14869e-10      270.179
   6.78223e-10      257.322
   7.48105e-10      245.084
   8.13708e-10       235.17
   8.25188e-10      233.435
   9.10213e-10      222.348
   9.90031e-10      213.367
      1.004e-9      211.795
    1.10745e-9      201.752
    1.22155e-9      192.194
    1.34742e-9      183.098
    1.48625e-9      174.443
    1.55005e-9      171.012
    1.63939e-9      166.208
    1.80831e-9      158.372
    1.99463e-9      150.917
    2.02277e-9      149.946
    2.20016e-9      143.826
    2.42685e-9       137.08
    2.67691e-9      130.664
    2.75297e-9      128.982
    2.95273e-9      124.563
    3.25697e-9      118.762
    3.59256e-9      113.247
    3.96272e-9      108.005
    4.37103e-9      103.023
    4.82141e-9      98.2899
    5.31819e-9      93.7944
    5.86616e-9      89.5261
    6.11796e-9      87.8475
    6.47059e-9      85.4969
    6.51624e-9      85.1926
     7.1373e-9      81.6697
      7.238e-9      81.0985
    7.87271e-9      78.0358
     8.0401e-9      77.2281
    8.68389e-9      74.5861
    8.93064e-9      73.5734
    9.57865e-9      71.3127
    9.92032e-9      70.1207
    1.05656e-8      68.2085
    1.07147e-8      67.7668
    1.10191e-8      66.8645
    1.16543e-8       65.268
    1.22402e-8      63.7949
    1.28551e-8      62.4856
     1.3596e-8      60.9078
    1.41796e-8      59.8557
    1.51027e-8      58.1917
    1.56406e-8      57.3713
    1.67755e-8      55.6405
    1.72522e-8      55.0263
    1.86345e-8      53.2453
    1.90298e-8      52.8162
    2.06986e-8      51.0047
    2.09906e-8      50.7385
    2.29923e-8      48.9136
    2.31534e-8      48.7895
    2.34801e-8      48.5378
    2.51838e-8      47.2251
    2.52419e-8      47.1803
       2.53e-8       47.139
    2.81037e-8       45.327
    3.12166e-8      43.6561
     3.4433e-8      42.2389
    3.49188e-8      42.0249
    3.79809e-8      40.9361
    3.90601e-8      40.5524
    4.18943e-8      39.7518
    4.36926e-8      39.2439
     4.6211e-8      38.6868
    4.88745e-8      38.0977
    5.09724e-8      37.7422
     5.4671e-8      37.1154
    5.62245e-8      36.9229
    6.11549e-8      36.3119
    6.20177e-8      36.2396
    6.84078e-8       35.704
    7.54563e-8      35.3638
    7.65208e-8      35.3125
    8.38182e-8      35.1887
    8.50007e-8      35.1687
    8.58565e-8      35.1676
    9.24546e-8      35.2651
     9.5371e-8      35.3082
    9.98577e-8      35.4968
    1.02695e-7      35.6161
    1.05198e-7      35.7213
    1.13277e-7      36.2676
    1.16037e-7      36.4542
    1.24948e-7      37.2856
    1.26212e-7      37.4036
     1.3728e-7      38.7248
    1.39767e-7      39.0892
    1.47241e-7      40.1845
    1.53096e-7      41.2067
    1.56819e-7      41.8567
    1.67027e-7      43.9553
    1.70053e-7      44.6824
    1.76655e-7      46.2689
    1.85528e-7      48.7256
    1.87575e-7      49.3696
    1.93492e-7      51.2314
    2.01797e-7       54.192
    2.05463e-7      55.6649
    2.08995e-7      57.0844
     2.1644e-7      60.4399
     2.2416e-7       64.368
     2.3053e-7      68.0026
     2.3144e-7      68.5815
     2.3708e-7       72.166
    2.43817e-7      76.9625
    2.48989e-7       81.048
    2.51736e-7      83.4312
    2.54283e-7      85.6408
    2.59676e-7      90.8011
    2.65198e-7      96.6518
    2.70823e-7      103.286
    2.76581e-7       110.88
    2.80483e-7      116.549
    2.83578e-7      121.421
     2.8444e-7      122.779
    2.88453e-7      129.643
    2.92523e-7      137.224
     2.9665e-7      145.616
    3.00835e-7      154.928
    3.05079e-7      165.285
    3.09383e-7      176.826
    3.13748e-7      189.708
     3.1721e-7      200.964
    3.18175e-7      204.102
    3.22663e-7      220.191
    3.27216e-7      238.165
    3.31832e-7        258.2
    3.36514e-7      280.444
    3.41261e-7      304.982
    3.42609e-7      312.487
    3.46076e-7      331.783
    3.50958e-7      360.646
    3.66023e-7      453.451
    3.71187e-7      482.626
    3.75105e-7      502.186
     3.7906e-7      518.815
    3.83071e-7      531.738
    3.85764e-7       537.87
    3.88476e-7      541.803
    3.91609e-7       543.42
    3.94132e-7      541.994
    3.95112e-7       541.44
    3.97899e-7      537.039
    4.00687e-7      530.231
    4.03513e-7      521.019
    4.07773e-7      503.206
    4.12072e-7      481.217
    4.16432e-7      455.821
    4.23781e-7      408.867
    4.34308e-7      340.182
    4.34743e-7      337.493
    4.38898e-7      311.813
    4.43531e-7      284.856
    4.48207e-7      259.612
     4.5295e-7      236.143
    4.56134e-7      221.595
     4.5934e-7      207.902
    4.62569e-7      195.051
    4.65821e-7      183.016
    4.69095e-7      171.767
    4.72393e-7      161.267
    4.75713e-7      151.477
    4.76202e-7      150.146
    4.79057e-7      142.357
    4.82425e-7      133.864
    4.85816e-7      125.957
    4.89231e-7      118.598
     4.9267e-7      111.747
    4.96133e-7      105.369
    4.99621e-7       99.428
    5.03133e-7      93.8924
    5.06669e-7       88.732
    5.10231e-7      83.9185
    5.13818e-7      79.4259
    5.17429e-7      75.2299
    5.22885e-7      69.4536
    5.28418e-7      64.2077
    5.34003e-7      59.4583
     5.3964e-7      55.1505
     5.4533e-7      51.2364
      5.511e-7      47.6573
    5.51652e-7      47.3481
    5.56924e-7      44.3949
    5.62804e-7      41.4158
    5.68738e-7      38.6907
    5.74756e-7      36.1826
     5.8083e-7      33.8817
    5.86962e-7      31.7674
    5.93151e-7      29.8217
    5.99427e-7      28.0201
    6.05762e-7      26.3577
    6.08493e-7      25.7017
    6.12157e-7      24.8214
    6.18611e-7      23.3997
    6.25157e-7      22.0763
    6.31764e-7      20.8487
    6.38433e-7      19.7086
    6.45165e-7      18.6485
    6.54267e-7       17.344
    6.61852e-7      16.3666
    6.63498e-7      16.1546
    6.72858e-7      15.0684
    6.82351e-7      14.0745
    6.91978e-7      13.1632
     7.0174e-7      12.3258
    7.11641e-7      11.5554
    7.21681e-7      10.8455
    7.31862e-7      10.1908
    7.42188e-7       9.5861
    7.52659e-7      9.02691
    7.63277e-7      8.50915
    7.72126e-7      8.11471
    7.74046e-7      8.02916
    7.84966e-7      7.58365
    7.96041e-7      7.16968
    8.07271e-7       6.7846
     8.1866e-7      6.42599
    8.28152e-7      6.15129
     8.3021e-7      6.09171
    8.41923e-7      5.77979
    8.53801e-7      5.48845
    8.65847e-7      5.21608
    8.78062e-7      4.96122
    8.96731e-7      4.60848
    9.15752e-7      4.28905
    9.35223e-7      3.99814
    9.55061e-7      3.73383
    9.75367e-7      3.49162
    9.93586e-7      3.29678
    9.96056e-7      3.27036
    1.01116e-6      3.12546
    1.01471e-6      3.09136
    1.01723e-6      3.06716
    1.02713e-6      2.98183
    1.03881e-6      2.88111
    1.03972e-6      2.87404
    1.04701e-6      2.81759
     1.0609e-6      2.70991
    1.06178e-6      2.70379
     1.0834e-6      2.55316
    1.09195e-6      2.49955
    1.10644e-6      2.40866
    1.12991e-6      2.27558
    1.15393e-6      2.15225
    1.17841e-6      2.03846
    1.17944e-6      2.03411
    1.20346e-6      1.93291
    1.22899e-6      1.83534
    1.25512e-6      1.74462
    1.27388e-6       1.6854
    1.28174e-6      1.66058
    1.31008e-6      1.58041
    1.31816e-6      1.55754
    1.35562e-6      1.46389
    1.39414e-6      1.37864
    1.43376e-6       1.3009
     1.4745e-6       1.2299
     1.5071e-6      1.17939
     1.5164e-6      1.16497
    1.54992e-6      1.11887
    1.55949e-6      1.10572
     1.6038e-6       1.0514
    1.64937e-6      1.00127
     1.7082e-6     0.944205
    1.76905e-6     0.892843
      1.783e-6      0.88258
    1.83215e-6     0.846439
    1.83367e-6     0.845466
    1.89741e-6     0.804599
    1.96509e-6     0.766745
    2.03509e-6     0.732601
    2.10768e-6     0.701744
    2.10942e-6     0.701099
    2.16936e-6     0.678947
    2.18275e-6     0.674001
    2.27645e-6      0.64443
    2.37416e-6     0.618938
    2.45885e-6     0.600097
    2.51321e-6     0.590104
    2.56439e-6     0.580707
    2.58462e-6     0.577774
    2.67447e-6     0.564756
    2.78927e-6     0.552117
      2.909e-6     0.543553
    2.97331e-6     0.540952
    3.01261e-6     0.539374
    3.05779e-6     0.538749
    3.09812e-6     0.538198
    3.20863e-6     0.540455
     3.2998e-6     0.545227
    3.39357e-6     0.553099
       3.49e-6     0.565256
    3.51764e-6      0.56989
    3.56403e-6     0.577685
    3.61759e-6     0.588954
    3.63981e-6      0.59363
    3.71701e-6     0.613793
    3.79604e-6     0.639309
     3.8496e-6     0.659934
    3.90391e-6     0.684095
    3.95899e-6     0.712487
    4.01484e-6     0.745997
    4.05722e-6      0.77513
        4.1e-6     0.808252
    4.14338e-6     0.846262
    4.16162e-6     0.864508
    4.18718e-6     0.890084
    4.23138e-6     0.940893
     4.2499e-6     0.965463
    4.27599e-6      1.00008
    4.30616e-6      1.04539
    4.33632e-6      1.09565
    4.36691e-6      1.15243
     4.3975e-6      1.21594
    4.42852e-6      1.28831
    4.45954e-6      1.37005
    4.48313e-6       1.4395
    4.50672e-6      1.51622
    4.53043e-6      1.60173
    4.55436e-6      1.69787
    4.57828e-6      1.80544
    4.60243e-6      1.92744
     4.6267e-6      2.06591
    4.64287e-6      2.16845
    4.65916e-6      2.28117
    4.67557e-6      2.40547
    4.69197e-6      2.54207
    4.70838e-6      2.69268
     4.7249e-6      2.86055
    4.74153e-6      3.04847
    4.75817e-6      3.25829
    4.77064e-6      3.43214
    4.78312e-6      3.62205
    4.79577e-6      3.83314
    4.80843e-6      4.06537
    4.82108e-6      4.32167
    4.83373e-6      4.60551
    4.84638e-6      4.92103
    4.85916e-6      5.27667
    4.87199e-6      5.67772
    4.88054e-6      5.97313
     4.8891e-6      6.29402
    4.89765e-6      6.64345
     4.9062e-6      7.02496
    4.91476e-6      7.44268
    4.92249e-6      7.85567
    4.92941e-6      8.25683
    4.93633e-6      8.69155
    4.94325e-6      9.16375
    4.95017e-6      9.67794
    4.95709e-6      10.2393
    4.96401e-6      10.8539
    4.97093e-6      11.5288
    4.97824e-6      12.3165
    4.98402e-6      13.0005
     4.9898e-6      13.7457
    4.99558e-6      14.5594
    5.00136e-6      15.4501
    5.00778e-6      16.5417
    5.01292e-6      17.5019
    5.01806e-6      18.5487
     5.0232e-6      19.6918
    5.02833e-6      20.9419
    5.03347e-6      22.3109
    5.03861e-6      23.8116
    5.04375e-6      25.4581
    5.04889e-6      27.2654
    5.05402e-6      29.2496
    5.05916e-6      31.4273
     5.0643e-6      33.8157
    5.06944e-6       36.432
    5.07457e-6      39.2931
    5.07971e-6      42.4148
    5.08485e-6      45.8112
    5.08999e-6      49.4938
    5.09512e-6      53.4707
    5.09888e-6      56.5918
    5.10026e-6      57.7455
     5.1054e-6      62.3162
    5.11054e-6      67.1744
    5.11824e-6      74.9634
    5.12595e-6      83.2708
    5.13879e-6       97.875
    5.14637e-6      106.512
    5.15421e-6      115.449
    5.16191e-6      123.639
    5.16962e-6      131.038
    5.17681e-6       136.97
    5.18041e-6      139.434
    5.18221e-6      140.667
    5.18657e-6      143.126
    5.19171e-6      145.355
    5.19662e-6      146.774
    5.19861e-6      147.065
    5.20129e-6      147.456
    5.20363e-6      147.549
    5.20846e-6      147.211
    5.21432e-6      145.858
    5.21946e-6      143.848
    5.22485e-6      140.955
     5.2305e-6      137.136
    5.23795e-6      131.023
    5.24489e-6      124.422
    5.25182e-6      117.162
    5.26467e-6      102.703
    5.27196e-6      94.3823
    5.28008e-6      85.1134
    5.28779e-6      76.7325
    5.29549e-6      68.8361
    5.30063e-6      63.8916
    5.30577e-6      59.2258
    5.31091e-6      54.8496
    5.31604e-6      50.7673
    5.32118e-6      46.9775
    5.32632e-6      43.4739
    5.33146e-6      40.2466
    5.33659e-6      37.2829
    5.34173e-6      34.5681
    5.34687e-6      32.0862
    5.35201e-6      29.8206
    5.35714e-6      27.7544
    5.36228e-6      25.8711
    5.36742e-6      24.1548
    5.37256e-6      22.5903
    5.37769e-6      21.1634
    5.38283e-6      19.8609
    5.38797e-6      18.6706
    5.39311e-6      17.5815
    5.39876e-6      16.4883
    5.40492e-6      15.4074
    5.41109e-6      14.4296
    5.41726e-6      13.5428
    5.42291e-6      12.8009
    5.43061e-6      11.8854
    5.43832e-6       11.067
    5.44603e-6      10.3324
    5.45373e-6      9.67067
    5.46144e-6      9.07246
    5.46914e-6      8.52984
    5.47685e-6      8.03608
    5.48456e-6      7.58543
    5.49226e-6      7.17298
    5.49997e-6      6.79447
    5.50768e-6      6.44624
    5.51538e-6      6.12511
    5.52309e-6      5.82832
    5.53283e-6      5.48428
    5.54257e-6      5.17105
    5.55231e-6      4.88503
    5.56205e-6      4.62314
    5.57179e-6      4.38271
    5.58153e-6      4.16146
    5.59614e-6      3.86125
    5.61089e-6      3.59168
     5.6257e-6      3.34988
    5.64052e-6      3.13313
    5.65534e-6      2.93808
    5.67015e-6      2.76193
    5.68504e-6      2.60159
    5.70007e-6      2.45461
    5.71509e-6      2.32076
    5.73012e-6      2.19854
    5.74013e-6      2.12285
    5.76017e-6      1.98384
    5.78048e-6      1.85771
     5.8008e-6      1.74447
    5.82112e-6      1.64242
    5.84143e-6      1.55014
    5.86203e-6      1.46532
    5.88264e-6      1.38825
    5.89721e-6      1.33861
    5.90324e-6      1.31804
    5.92384e-6       1.2539
    5.94474e-6      1.19433
    5.97608e-6      1.11401
    6.00742e-6      1.04301
     6.0392e-6     0.979107
    6.07098e-6     0.922192
    6.10292e-6     0.871057
    6.13515e-6     0.824751
    6.16738e-6     0.783069
    6.19991e-6     0.745078
     6.2217e-6     0.721666
    6.26528e-6     0.679141
    6.30948e-6      0.64111
    6.35368e-6     0.607455
     6.3985e-6     0.577136
    6.44332e-6     0.550055
    6.48877e-6     0.525411
    6.53422e-6     0.503248
    6.58031e-6     0.482991
    6.64978e-6     0.456072
    6.71989e-6     0.432596
      6.791e-6     0.411923
    6.86277e-6     0.393719
    6.93521e-6     0.377619
    6.97682e-6     0.369498
    7.00834e-6     0.363354
    7.10721e-6     0.346751
    7.20748e-6      0.33232
    7.30917e-6     0.319783
    7.41229e-6     0.308868
    7.51686e-6     0.299337
    7.62291e-6     0.290994
    7.78499e-6     0.280359
    7.95012e-6     0.271649
    8.11916e-6     0.264504
    8.19628e-6     0.261915
    8.25409e-6     0.259983
    8.29138e-6     0.258737
    8.46767e-6     0.254134
    8.70828e-6     0.249582
    8.95573e-6     0.246626
    9.21021e-6     0.245116
    9.35976e-6     0.244868
    9.62572e-6     0.245483
    9.89924e-6     0.247457
    1.00427e-5     0.249189
    1.01805e-5     0.250866
    1.04698e-5     0.255873
    1.06897e-5     0.260844
    1.08378e-5      0.26504
    1.09494e-5     0.269185
    1.10126e-5     0.272605
    1.10551e-5     0.276097
    1.10912e-5     0.280625
    1.11231e-5       0.2865
    1.11549e-5      0.29449
    1.12187e-5     0.313625
    1.12399e-5     0.318626
     1.1258e-5     0.321372
    1.12782e-5     0.322437
    1.12994e-5     0.321227
    1.13206e-5     0.317995
     1.1395e-5     0.301249
    1.14269e-5     0.295955
    1.14587e-5     0.292722
    1.14991e-5     0.290926
    1.15266e-5     0.290655
    1.15529e-5     0.291023
    1.15905e-5     0.291549
    1.17131e-5     0.295624
    1.19198e-5      0.30488
    1.21732e-5     0.318526
    1.24315e-5     0.334839
    1.26068e-5     0.347441
    1.27847e-5     0.361638
    1.29651e-5     0.377692
     1.3148e-5     0.395889
    1.33335e-5     0.416564
    1.35216e-5     0.440204
     1.3668e-5     0.461094
    1.37123e-5     0.467431
    1.38574e-5     0.490637
    1.40039e-5     0.516552
    1.41517e-5     0.545726
    1.43009e-5     0.578696
    1.44523e-5     0.616327
     1.4605e-5     0.659356
    1.47073e-5     0.691483
    1.48111e-5     0.727188
    1.49148e-5     0.766481
    1.50129e-5     0.807491
     1.5111e-5     0.852974
    1.52066e-5     0.902658
    1.52783e-5      0.94466
    1.53473e-5     0.991456
    1.53925e-5      1.02839
    1.54297e-5      1.06565
    1.54615e-5      1.10497
    1.54934e-5      1.15273
    1.55253e-5      1.20864
    1.55784e-5      1.30867
    1.56087e-5      1.35804
    1.56336e-5      1.38844
    1.56549e-5      1.40529
     1.5674e-5      1.41344
    1.56931e-5      1.41597
    1.57356e-5       1.4099
     1.5776e-5      1.40397
    1.58078e-5      1.40719
    1.58397e-5      1.41949
    1.58652e-5       1.4354
    1.59077e-5      1.47134
    1.59515e-5      1.51727
    1.59953e-5      1.56955
    1.60511e-5      1.64344
    1.61042e-5       1.7209
    1.61573e-5      1.80542
    1.61702e-5      1.82777
    1.62104e-5       1.8975
    1.62656e-5      2.00198
    1.63229e-5      2.12099
    1.63802e-5      2.25214
    1.64374e-5      2.39698
    1.64951e-5      2.55854
    1.65532e-5      2.73951
    1.65967e-5      2.88895
    1.66403e-5      3.05167
    1.66838e-5      3.22934
    1.67278e-5      3.42583
     1.6772e-5        3.643
    1.68162e-5       3.8828
    1.68603e-5      4.14849
    1.69045e-5      4.44391
    1.69489e-5       4.7753
    1.69937e-5      5.15065
    1.70235e-5       5.4271
    1.70534e-5      5.72735
    1.70833e-5      6.05425
    1.71131e-5      6.41109
     1.7143e-5      6.80166
    1.71728e-5      7.23041
    1.71974e-5      7.61577
     1.7222e-5      8.03387
    1.72466e-5      8.48857
    1.72712e-5      8.98431
    1.72958e-5      9.52625
    1.73204e-5      10.1204
     1.7345e-5      10.7739
    1.73696e-5      11.4949
    1.73885e-5      12.1022
    1.74074e-5      12.7605
    1.74264e-5      13.4759
    1.74453e-5      14.2553
    1.74642e-5      15.1067
    1.74832e-5      16.0394
    1.75021e-5      17.0645
     1.7521e-5      18.1949
    1.75359e-5      19.1669
    1.75508e-5      20.2221
    1.75657e-5      21.3706
    1.75805e-5      22.6241
    1.75954e-5      23.9964
    1.76103e-5      25.5036
    1.76251e-5      27.1647
      1.764e-5      29.0026
    1.76522e-5      30.6567
    1.76644e-5      32.4652
    1.76765e-5       34.449
    1.76887e-5      36.6331
    1.77009e-5      39.0474
     1.7713e-5      41.7276
    1.77252e-5      44.7174
    1.77343e-5      47.1943
    1.77421e-5      49.4847
    1.77516e-5      52.5263
     1.7761e-5      55.8836
    1.77705e-5      59.6034
      1.778e-5      63.7409
    1.77894e-5      68.3609
    1.77965e-5      72.1878
    1.78036e-5      76.3653
    1.78107e-5      80.9349
    1.78172e-5      85.4454
    1.78253e-5      91.7146
    1.78314e-5      96.8824
    1.78374e-5      102.493
    1.78435e-5      108.589
    1.78496e-5      115.218
    1.78557e-5      122.427
    1.78618e-5       130.27
    1.78679e-5      138.803
     1.7874e-5      148.085
    1.78802e-5       158.41
    1.78867e-5      170.158
    1.78932e-5      182.981
    1.78996e-5      196.956
    1.79061e-5      212.164
    1.79126e-5       228.68
    1.79199e-5      248.919
    1.79272e-5      271.005
    1.79348e-5       295.95
    1.79429e-5      325.068
     1.7951e-5      356.716
    1.79591e-5      390.916
    1.79673e-5      427.641
    1.79754e-5      466.807
    1.79862e-5       522.57
     1.7997e-5       581.88
    1.80132e-5      675.783
    1.80403e-5      836.167
    1.80511e-5      897.613
    1.80619e-5      955.143
    1.80727e-5      1007.13
    1.80835e-5      1052.03
    1.80927e-5      1083.55
    1.81019e-5      1108.19
    1.81101e-5      1123.73
    1.81182e-5      1133.15
    1.81266e-5      1136.27
     1.8136e-5      1131.64
    1.81436e-5      1121.78
    1.81522e-5      1104.06
    1.81598e-5      1083.18
    1.81679e-5      1055.72
    1.81765e-5      1021.18
    1.81851e-5      982.192
    1.81979e-5      917.077
    1.82138e-5      827.381
    1.82462e-5      636.135
      1.826e-5      557.994
    1.82706e-5      501.232
    1.82786e-5      461.002
    1.82865e-5      422.992
    1.82945e-5      387.327
    1.83025e-5      354.079
    1.83104e-5      323.267
    1.83184e-5      294.868
    1.83264e-5      268.826
    1.83343e-5      245.052
    1.83397e-5       230.41
     1.8345e-5      216.691
    1.83503e-5      203.855
    1.83556e-5      191.862
    1.83609e-5       180.67
    1.83662e-5      170.236
    1.83715e-5      160.517
    1.83768e-5      151.471
    1.83821e-5      143.056
    1.83875e-5      135.231
    1.83928e-5      127.957
    1.84007e-5      117.997
    1.84087e-5      109.071
    1.84167e-5      101.068
    1.84246e-5      93.8857
    1.84313e-5        88.46
    1.84392e-5      82.5477
    1.84472e-5      77.2171
    1.84552e-5      72.4006
    1.84635e-5      67.8309
    1.84723e-5      63.5144
    1.84811e-5      59.6198
    1.84898e-5      56.0943
    1.84986e-5      52.8926
    1.85074e-5      49.9756
    1.85161e-5      47.3095
    1.85249e-5      44.8654
    1.85352e-5      42.2291
    1.85472e-5      39.4836
    1.85591e-5      37.0126
    1.85711e-5      34.7791
     1.8583e-5       32.752
     1.8595e-5      30.9053
    1.86069e-5      29.2174
    1.86189e-5      27.6697
    1.86328e-5      26.0205
    1.86488e-5      24.3162
    1.86647e-5      22.7793
    1.86806e-5      21.3881
    1.86966e-5      20.1241
    1.87125e-5      18.9718
    1.87284e-5      17.9183
    1.87444e-5      16.9522
    1.87616e-5      15.9932
    1.87802e-5      15.0505
    1.87988e-5      14.1905
    1.88174e-5      13.4035
     1.8836e-5      12.6815
    1.88546e-5      12.0173
    1.88732e-5      11.4049
    1.89011e-5       10.572
    1.89233e-5      9.97208
    1.89456e-5      9.42273
    1.89678e-5      8.91842
    1.89901e-5      8.45434
    1.90124e-5       8.0263
    1.90458e-5      7.44392
    1.90791e-5      6.92403
    1.91114e-5      6.47369
    1.91305e-5      6.23149
    1.91436e-5      6.06696
    1.91758e-5      5.69843
     1.9208e-5      5.36354
    1.92402e-5      5.05845
    1.92711e-5      4.79044
    1.93115e-5      4.47356
    1.93479e-5      4.21739
    1.93843e-5      3.98618
    1.94247e-5      3.75569
    1.94651e-5      3.54919
    1.95156e-5      3.31668
    1.95843e-5      3.02819
     1.9649e-5      2.77626
    1.96995e-5      2.59621
      1.975e-5      2.43474
    1.97978e-5      2.29912
    1.98489e-5      2.16999
    1.99102e-5      2.03244
    1.99777e-5       1.8978
    2.00452e-5      1.77641
    2.01167e-5      1.66036
    2.01882e-5      1.55698
    2.02526e-5      1.47383
    2.03247e-5      1.39032
    2.04013e-5      1.31091
    2.04652e-5      1.25119
    2.05419e-5      1.18636
    2.06185e-5      1.12819
    2.07169e-5      1.06213
    2.07897e-5      1.01875
    2.08625e-5     0.979575
    2.09722e-5     0.927739
     2.1083e-5     0.883404
    2.11938e-5     0.846427
    2.13056e-5     0.816165
    2.13804e-5     0.799816
    2.14553e-5     0.786692
    2.15302e-5     0.776953
    2.16082e-5     0.770718
    2.16862e-5     0.769017
    2.17627e-5     0.772556
    2.18201e-5      0.77929
    2.18775e-5     0.790305
    2.19348e-5     0.806611
    2.19731e-5     0.821106
    2.20219e-5     0.844899
    2.20666e-5     0.873102
    2.20963e-5     0.896222
     2.2126e-5     0.923594
    2.21558e-5     0.956122
    2.21855e-5     0.994981
    2.22078e-5       1.0292
    2.22301e-5      1.06871
    2.22505e-5      1.11025
    2.22708e-5      1.15816
    2.22911e-5       1.2138
    2.23064e-5      1.26169
    2.23216e-5      1.31591
    2.23369e-5      1.37769
    2.23521e-5      1.44859
    2.23674e-5      1.53057
    2.23775e-5      1.59262
    2.23877e-5      1.66162
    2.23991e-5      1.74893
    2.24087e-5      1.83079
    2.24182e-5      1.92226
    2.24277e-5       2.0248
    2.24373e-5      2.14009
    2.24468e-5      2.27008
    2.24563e-5      2.41696
    2.24659e-5      2.58323
    2.24754e-5      2.77168
    2.24818e-5      2.91115
    2.24881e-5      3.06286
    2.24945e-5      3.22783
    2.25018e-5      3.43728
    2.25092e-5      3.66786
    2.25166e-5      3.92144
    2.25239e-5       4.1999
    2.25313e-5      4.50518
    2.25387e-5      4.83918
    2.25461e-5      5.20375
    2.25534e-5      5.60062
     2.2561e-5      6.04688
    2.25687e-5      6.53097
    2.25763e-5       7.0541
    2.25839e-5      7.61713
    2.25915e-5      8.22045
    2.25992e-5      8.86391
    2.26093e-5       9.7829
    2.26195e-5      10.7681
    2.26297e-5      11.8136
    2.26328e-5      12.1564
    2.26449e-5      13.4752
    2.26856e-5      18.1269
    2.27008e-5      19.7799
     2.2711e-5      20.7975
    2.27212e-5      21.7222
    2.27313e-5      22.5337
    2.27415e-5      23.2133
    2.27499e-5       23.663
    2.27598e-5      24.0543
      2.277e-5      24.2891
    2.27787e-5      24.3516
    2.27872e-5      24.2869
    2.27974e-5      24.0498
    2.28066e-5      23.6923
    2.28147e-5      23.2658
    2.28249e-5      22.5996
     2.2835e-5      21.8005
    2.28452e-5      20.8869
    2.28604e-5       19.347
    2.28757e-5      17.6679
    2.29113e-5      13.6015
    2.29265e-5      11.9387
    2.29367e-5      10.8905
    2.29469e-5      9.90129
     2.2957e-5      8.97719
    2.29646e-5      8.32927
    2.29723e-5      7.72107
    2.29794e-5      7.18943
    2.29865e-5      6.69237
    2.29936e-5      6.22927
    2.30007e-5      5.79927
    2.30073e-5      5.42861
    2.30139e-5      5.08446
    2.30206e-5      4.76561
    2.30272e-5      4.47083
    2.30338e-5      4.19877
    2.30404e-5      3.94811
     2.3047e-5      3.71747
    2.30536e-5      3.50551
      2.306e-5      3.31807
    2.30663e-5      3.14553
    2.30727e-5      2.98676
     2.3079e-5      2.84072
    2.30854e-5       2.7064
    2.30949e-5      2.52481
    2.31044e-5      2.36448
     2.3114e-5      2.22273
    2.31235e-5       2.0972
     2.3133e-5      1.98576
    2.31426e-5      1.88659
    2.31521e-5      1.79806
      2.316e-5      1.73141
    2.31696e-5      1.65892
    2.31791e-5      1.59362
    2.31934e-5      1.50716
    2.32077e-5      1.43231
     2.3222e-5      1.36702
    2.32363e-5      1.30971
    2.32506e-5      1.25909
    2.32696e-5      1.20028
    2.32887e-5      1.14966
    2.33077e-5      1.10578
    2.33273e-5      1.06662
    2.33468e-5      1.03242
    2.33729e-5     0.993237
    2.33989e-5     0.960147
     2.3425e-5     0.932086
     2.3451e-5     0.908235
    2.34901e-5     0.878972
    2.35312e-5     0.855037
    2.35765e-5     0.835217
    2.36218e-5     0.820937
    2.36671e-5     0.811242
    2.37274e-5     0.804304
    2.37681e-5     0.802989
    2.38205e-5     0.804844
    2.38833e-5     0.811917
    2.39461e-5     0.823963
     2.4009e-5     0.840879
    2.40718e-5     0.862754
    2.41353e-5     0.890119
     2.4199e-5     0.923396
    2.42627e-5     0.963115
    2.43265e-5      1.01016
    2.43902e-5      1.06568
    2.44497e-5      1.12645
    2.45006e-5      1.18663
    2.45516e-5      1.25563
    2.46025e-5       1.3351
    2.46365e-5      1.39488
    2.46705e-5      1.46093
    2.47044e-5      1.53412
    2.47443e-5      1.63041
    2.47841e-5      1.73991
    2.48107e-5      1.82145
    2.48372e-5      1.91084
    2.48638e-5       2.0091
    2.48903e-5      2.11746
    2.49169e-5      2.23737
    2.49408e-5      2.35659
    2.49647e-5      2.48807
    2.49886e-5      2.63358
    2.50125e-5      2.79527
    2.50364e-5       2.9757
    2.50566e-5      3.14494
    2.50749e-5      3.31397
    2.50932e-5      3.49968
    2.51139e-5      3.73266
    2.51315e-5       3.9518
    2.51474e-5      4.17115
    2.51633e-5      4.41242
    2.51793e-5      4.67879
    2.51952e-5      4.97409
    2.52111e-5      5.30297
    2.52271e-5      5.67116
     2.5243e-5      6.08581
    2.52536e-5      6.39239
    2.52642e-5      6.72676
    2.52749e-5      7.09274
    2.52855e-5       7.4948
    2.52966e-5      7.96158
    2.53078e-5      8.48125
    2.53165e-5      8.92941
    2.53259e-5      9.45763
    2.53365e-5      10.1259
    2.53444e-5      10.6813
    2.53521e-5      11.2682
    2.53597e-5      11.8986
    2.53673e-5      12.5883
    2.53752e-5      13.3859
    2.53832e-5      14.2654
    2.53912e-5      15.2366
    2.53991e-5      16.3101
    2.54071e-5      17.4976
    2.54151e-5      18.8117
     2.5423e-5       20.266
     2.5431e-5       21.875
     2.5439e-5       23.654
    2.54469e-5      25.6191
    2.54549e-5      27.7869
    2.54629e-5      30.1741
    2.54708e-5      32.7977
    2.54788e-5      35.6742
    2.54868e-5      38.8196
    2.54947e-5      42.2486
    2.55027e-5      45.9744
    2.55107e-5      50.0078
     2.5516e-5      52.8718
    2.55252e-5      58.1575
    2.55343e-5      63.8705
    2.55447e-5      70.8009
     2.5555e-5      78.2459
    2.55653e-5        86.17
    2.55756e-5      94.5198
    2.55911e-5      107.682
    2.56324e-5      143.984
    2.56479e-5      156.744
    2.56582e-5      164.576
    2.56686e-5      171.688
    2.56789e-5      177.933
    2.56892e-5      183.176
    2.56995e-5      187.301
    2.57081e-5      189.797
    2.57161e-5      191.356
    2.57245e-5      192.152
    2.57278e-5      192.222
    2.57377e-5       191.62
    2.57481e-5       189.71
    2.57581e-5      186.633
    2.57666e-5       183.14
     2.5777e-5      177.897
    2.57873e-5      171.657
    2.57976e-5      164.555
    2.58131e-5       152.61
    2.58286e-5       139.58
    2.58699e-5       103.38
    2.58854e-5      90.4902
    2.58983e-5      80.4045
    2.59086e-5      72.8518
    2.59189e-5      65.8016
    2.59267e-5      60.8587
    2.59344e-5      56.2164
    2.59421e-5      51.8756
    2.59499e-5       47.833
    2.59576e-5      44.0823
    2.59638e-5       41.286
      2.597e-5      38.6655
    2.59762e-5      36.2145
    2.59824e-5      33.9261
    2.59886e-5      31.7931
    2.59948e-5       29.808
     2.6001e-5      27.9631
    2.60072e-5      26.2505
     2.6014e-5      24.5197
    2.60207e-5      22.9277
    2.60275e-5      21.4647
    2.60343e-5      20.1212
    2.60411e-5      18.8878
    2.60478e-5      17.7558
    2.60546e-5       16.717
    2.60614e-5      15.7635
    2.60682e-5      14.8879
    2.60749e-5      14.0834
    2.60824e-5      13.2765
    2.60911e-5      12.4183
    2.60998e-5      11.6456
    2.61085e-5      10.9485
    2.61172e-5      10.3182
    2.61259e-5      9.74685
    2.61346e-5      9.22759
    2.61433e-5      8.75443
    2.61549e-5      8.18624
    2.61666e-5         7.68
    2.61759e-5      7.31115
    2.61866e-5      6.92824
    2.61972e-5      6.57979
    2.62079e-5      6.26156
    2.62221e-5      5.87814
    2.62363e-5      5.53503
    2.62504e-5      5.22646
    2.62646e-5       4.9477
    2.62788e-5      4.69485
    2.62963e-5      4.41518
    2.63117e-5      4.19123
    2.63272e-5      3.98746
    2.63479e-5      3.74305
    2.63685e-5      3.52554
    2.63892e-5       3.3311
    2.64098e-5      3.15658
    2.64305e-5      2.99937
    2.64511e-5       2.8573
    2.64753e-5      2.70763
    2.64995e-5      2.57376
    2.65237e-5      2.45364
    2.65479e-5      2.34557
    2.65802e-5      2.21772
    2.66124e-5       2.1059
    2.66447e-5      2.00779
     2.6677e-5      1.92153
    2.67092e-5      1.84557
      2.675e-5      1.76235
    2.67763e-5      1.71664
    2.67908e-5      1.69143
    2.68315e-5      1.63113
    2.68723e-5      1.58004
    2.69131e-5      1.53705
    2.69539e-5      1.50123
    2.69946e-5      1.47185
    2.70354e-5      1.44831
    2.70795e-5      1.42887
    2.71456e-5      1.41041
    2.72117e-5      1.40371
    2.72597e-5      1.40575
    2.73317e-5      1.41927
    2.74036e-5       1.4452
    2.74756e-5      1.48375
    2.75236e-5      1.51673
    2.75716e-5      1.55585
    2.76246e-5      1.60669
    2.76827e-5      1.67233
    2.77407e-5      1.74954
    2.77988e-5      1.83979
     2.7853e-5      1.93754
    2.79035e-5      2.04172
    2.79539e-5      2.16056
    2.79918e-5      2.26068
    2.80296e-5       2.3715
    2.80655e-5      2.48764
    2.81013e-5      2.61606
    2.81252e-5      2.70931
    2.81656e-5      2.88244
    2.81974e-5      3.03471
    2.82293e-5      3.20252
    2.82612e-5      3.38771
     2.8293e-5      3.59235
    2.83249e-5      3.81887
    2.83547e-5      4.05266
    2.83848e-5      4.31454
     2.8412e-5      4.57657
    2.84439e-5      4.91832
    2.84651e-5      5.17059
    2.84864e-5      5.44531
    2.85076e-5      5.74541
    2.85289e-5      6.07426
    2.85501e-5       6.4358
    2.85714e-5      6.83461
    2.85894e-5      7.20694
    2.86117e-5      7.71532
    2.86324e-5       8.2426
    2.86531e-5      8.83183
    2.86736e-5      9.48459
    2.86935e-5      10.2003
    2.87068e-5      10.7284
    2.87201e-5      11.3032
    2.87333e-5      11.9309
    2.87466e-5      12.6187
    2.87599e-5      13.3753
    2.87732e-5      14.2111
    2.87842e-5      14.9741
    2.87952e-5      15.8089
    2.88062e-5      16.7255
    2.88173e-5      17.7358
    2.88283e-5      18.8539
    2.88393e-5      20.0964
    2.88503e-5      21.4829
    2.88586e-5       22.631
    2.88667e-5      23.8566
    2.88747e-5      25.1798
    2.88827e-5      26.6259
    2.88907e-5      28.2094
    2.88987e-5      29.9462
    2.89067e-5       31.854
    2.89147e-5      33.9524
    2.89227e-5      36.2627
    2.89307e-5      38.8084
    2.89388e-5       41.615
    2.89468e-5      44.7099
    2.89548e-5      48.1226
    2.89628e-5      51.8843
    2.89708e-5      56.0279
    2.89788e-5      60.5879
    2.89868e-5      65.5997
    2.89948e-5      71.0993
    2.90028e-5      77.1231
    2.90108e-5      83.7066
    2.90188e-5      90.8848
    2.90268e-5      98.6898
    2.90348e-5      107.151
    2.90428e-5      116.295
    2.90508e-5      126.141
    2.90599e-5      138.168
    2.90695e-5      151.916
    2.90791e-5      166.702
    2.90898e-5      184.315
    2.91005e-5      203.106
    2.91112e-5      222.969
    2.91272e-5      254.438
    2.91539e-5      309.561
    2.91752e-5      353.543
    2.91912e-5      384.704
    2.92072e-5      412.941
    2.92179e-5      429.543
    2.92286e-5      443.978
    2.92393e-5      455.947
    2.92499e-5      465.197
    2.92606e-5      471.529
    2.92713e-5      474.804
    2.92771e-5      475.273
    2.92873e-5      473.848
     2.9298e-5      469.321
    2.93084e-5      462.014
    2.93172e-5      453.713
    2.93279e-5      441.233
    2.93385e-5      426.354
    2.93492e-5      409.382
    2.93652e-5      380.743
    2.93812e-5      349.363
    2.94239e-5      261.298
    2.94399e-5       229.57
    2.94533e-5      204.582
     2.9464e-5      185.765
    2.94746e-5      168.112
    2.94826e-5       155.68
    2.94906e-5      143.959
    2.94986e-5      132.957
    2.95067e-5      122.672
    2.95147e-5      113.094
    2.95211e-5      105.929
    2.95275e-5      99.1954
    2.95339e-5      92.8795
    2.95403e-5      86.9669
    2.95467e-5      81.4414
    2.95531e-5      76.2863
    2.95595e-5      71.4839
    2.95659e-5      67.0162
    2.95729e-5      62.4912
    2.95799e-5      58.3208
    2.95869e-5      54.4814
    2.95939e-5      50.9499
    2.96009e-5      47.7037
    2.96079e-5      44.7212
    2.96149e-5      41.9819
    2.96219e-5      39.4661
    2.96289e-5      37.1554
     2.9636e-5      35.0324
    2.96433e-5      32.9921
    2.96513e-5      30.9609
    2.96593e-5      29.1127
    2.96673e-5      27.4289
    2.96753e-5      25.8925
    2.96833e-5      24.4884
    2.96913e-5      23.2027
    2.96993e-5      22.0232
      2.971e-5       20.597
    2.97207e-5      19.3173
    2.97327e-5      18.0288
    2.97427e-5       17.061
    2.97527e-5      16.1772
    2.97661e-5      15.1124
    2.97794e-5      14.1597
    2.97927e-5       13.303
    2.98061e-5      12.5288
    2.98194e-5      11.8262
    2.98328e-5      11.1859
    2.98501e-5      10.4343
    2.98675e-5      9.76134
    2.98848e-5      9.15576
    2.99022e-5      8.60837
    2.99195e-5      8.11157
    2.99368e-5      7.65903
    2.99542e-5      7.24544
    2.99715e-5      6.86628
    2.99949e-5      6.40355
    3.00182e-5      5.98841
    3.00416e-5      5.61439
    3.00649e-5      5.27609
    3.00883e-5        4.969
    3.01116e-5      4.68932
     3.0135e-5      4.43382
    3.01584e-5      4.19973
     3.0185e-5      3.95541
    3.02117e-5      3.73297
    3.02384e-5      3.52982
    3.02651e-5      3.34379
    3.02918e-5      3.17296
    3.03185e-5      3.01573
    3.03585e-5       2.8023
    3.03885e-5      2.65776
    3.04219e-5      2.51084
    3.04552e-5      2.37669
    3.04886e-5      2.25386
     3.0522e-5      2.14111
    3.05553e-5      2.03737
    3.06054e-5      1.89663
    3.06387e-5      1.81156
    3.06888e-5       1.6954
    3.07388e-5      1.59124
    3.07888e-5      1.49747
    3.08389e-5      1.41273
    3.08889e-5      1.33592
    3.09389e-5      1.26607
     3.0989e-5      1.20239
     3.1039e-5      1.14417
    3.10938e-5      1.08603
    3.11485e-5      1.03303
    3.12032e-5     0.984588
    3.12853e-5     0.919388
    3.13674e-5     0.861905
    3.14496e-5     0.810986
    3.15324e-5     0.765287
    3.16157e-5     0.724341
    3.16783e-5     0.696813
     3.1699e-5     0.687714
    3.17822e-5     0.654858
    3.18655e-5     0.625286
    3.19773e-5     0.589976
    3.20899e-5     0.558777
    3.22025e-5     0.531391
    3.23151e-5     0.507279
    3.24284e-5     0.485816
    3.25426e-5     0.466688
    3.26568e-5     0.449747
     3.2771e-5     0.434729
    3.29438e-5     0.415162
    3.31175e-5     0.398791
    3.32912e-5     0.385198
    3.34673e-5     0.373881
    3.36435e-5     0.364731
    3.38198e-5     0.357464
    3.39967e-5     0.351882
    3.42326e-5      0.34684
     3.4445e-5      0.34456
    3.45247e-5     0.344357
    3.46097e-5     0.344825
    3.46957e-5     0.346691
     3.4785e-5     0.350941
    3.49018e-5     0.357903
    3.49666e-5     0.359506
    3.49719e-5     0.359517
    3.50463e-5     0.358006
    3.51769e-5     0.353367
    3.52523e-5     0.352605
    3.53639e-5      0.35395
    3.55073e-5     0.357665
    3.57092e-5     0.364691
    3.59007e-5     0.372955
    3.60886e-5     0.382625
    3.62728e-5     0.393792
    3.64671e-5     0.407952
    3.65693e-5     0.417255
    3.66409e-5     0.425783
    3.66945e-5     0.434494
    3.67421e-5     0.444875
     3.6787e-5     0.457587
    3.68433e-5     0.477099
    3.69148e-5     0.503197
    3.69557e-5     0.514981
    3.69894e-5     0.521267
    3.70252e-5     0.523935
    3.70303e-5     0.523983
    3.70661e-5     0.522272
    3.71172e-5     0.515425
    3.71908e-5     0.503994
    3.72408e-5     0.499268
    3.72797e-5     0.498069
    3.73257e-5     0.499153
     3.7387e-5     0.503686
    3.74777e-5     0.514251
    3.74898e-5     0.515661
    3.76404e-5     0.537875
    3.77361e-5     0.554309
     3.7829e-5     0.573085
    3.79113e-5      0.59348
    3.80903e-5     0.645367
    3.81572e-5     0.660524
    3.83468e-5     0.692431
    3.84185e-5     0.708248
    3.85062e-5     0.731873
    3.86124e-5     0.765096
    3.87186e-5       0.8023
    3.88341e-5     0.847282
    3.89497e-5     0.897515
    3.90599e-5     0.951066
    3.91595e-5      1.00495
     3.9259e-5      1.06491
    3.93586e-5      1.13198
    3.94582e-5      1.20747
    3.95578e-5      1.29303
    3.96208e-5      1.35327
    3.96837e-5      1.41906
    3.97467e-5      1.49121
    3.98097e-5      1.57072
    3.98726e-5      1.65878
    3.99356e-5      1.75692
    3.99986e-5      1.86705
    4.00458e-5      1.95896
    4.01034e-5      2.08399
    4.01453e-5      2.18537
    4.01871e-5      2.29725
     4.0229e-5      2.42153
    4.02709e-5      2.56057
    4.03127e-5      2.71744
    4.03441e-5      2.84916
    4.03755e-5      2.99533
    4.04097e-5      3.17387
    4.04361e-5      3.32883
    4.04625e-5      3.50152
    4.04889e-5      3.69554
    4.05153e-5      3.91566
    4.05351e-5      4.10166
    4.05549e-5      4.30945
    4.05747e-5      4.54361
    4.05945e-5      4.81006
    4.06122e-5        5.082
    4.06257e-5      5.31558
    4.06393e-5      5.57588
    4.06528e-5       5.8676
    4.06663e-5      6.19641
    4.06798e-5      6.56902
    4.06934e-5      6.99342
    4.07024e-5      7.30969
    4.07114e-5      7.65628
    4.07204e-5      8.03666
    4.07294e-5      8.45468
    4.07385e-5      8.91451
    4.07475e-5      9.42071
    4.07584e-5      10.1048
    4.07681e-5      10.7788
    4.07778e-5       11.526
    4.07874e-5      12.3539
    4.07971e-5      13.2701
    4.08067e-5      14.2826
    4.08164e-5      15.3996
    4.08261e-5      16.6292
    4.08357e-5      17.9794
    4.08454e-5       19.458
     4.0855e-5      21.0719
    4.08662e-5      23.1223
    4.08775e-5       25.372
    4.08887e-5      27.8269
    4.08999e-5      30.4901
    4.09111e-5      33.3614
    4.09225e-5      36.5092
    4.09341e-5      39.8994
    4.09457e-5      43.4822
    4.09612e-5      48.5208
    4.09818e-5      55.5904
     4.1023e-5      70.0666
    4.10436e-5      76.8974
    4.10591e-5      81.5793
    4.10745e-5       85.732
      4.109e-5      89.2294
    4.11055e-5      91.9614
    4.11173e-5      93.4818
    4.11292e-5      94.4712
    4.11436e-5      94.9332
    4.11443e-5      94.9346
     4.1157e-5      94.6236
    4.11683e-5      93.8133
    4.11786e-5      92.6544
     4.1191e-5      90.7604
    4.12065e-5      87.6833
    4.12219e-5      83.9159
    4.12374e-5        79.58
     4.1258e-5      73.1454
    4.12889e-5      62.7524
    4.13147e-5      54.0625
    4.13301e-5      49.0607
    4.13476e-5      43.7119
      4.136e-5      40.1871
    4.13703e-5      37.4269
    4.13806e-5      34.8369
    4.13909e-5      32.4222
    4.14012e-5      30.1849
    4.14109e-5       28.248
    4.14205e-5      26.4642
    4.14302e-5      24.8297
    4.14399e-5      23.3393
    4.14495e-5       21.987
    4.14592e-5      20.7658
    4.14688e-5      19.6684
    4.14785e-5       18.687
    4.14882e-5      17.8138
    4.14978e-5      17.0409
    4.15088e-5      16.2764
    4.15178e-5      15.7284
    4.15268e-5      15.2477
    4.15403e-5      14.6412
    4.15539e-5      14.1568
    4.15674e-5      13.7792
    4.15809e-5       13.496
    4.15942e-5      13.2952
    4.16075e-5      13.1637
    4.16208e-5      13.0935
    4.16297e-5      13.0773
    4.16474e-5      13.1108
    4.16652e-5      13.2234
    4.16829e-5      13.4071
    4.17007e-5      13.6563
    4.17184e-5      13.9677
    4.17363e-5      14.3408
    4.17541e-5      14.7746
    4.17719e-5      15.2705
    4.17897e-5       15.831
    4.18075e-5        16.46
    4.18253e-5      17.1628
    4.18431e-5      17.9459
    4.18609e-5      18.8177
    4.18807e-5       19.903
    4.19005e-5       21.128
    4.19203e-5      22.5146
    4.19351e-5      23.6771
      4.195e-5      24.9602
    4.19648e-5      26.3813
    4.19797e-5      27.9608
    4.19945e-5      29.7238
    4.20093e-5      31.7004
    4.20192e-5      33.1545
    4.20331e-5      35.4009
    4.20435e-5      37.2688
    4.20539e-5      39.3154
    4.20643e-5      41.5631
    4.20746e-5      44.0373
     4.2085e-5      46.7671
    4.20954e-5      49.7847
    4.21058e-5      53.1266
    4.21162e-5      56.8336
    4.21266e-5      60.9508
    4.21348e-5      64.5284
    4.21443e-5      69.0601
    4.21538e-5       74.057
    4.21633e-5      79.5669
    4.21728e-5      85.6413
    4.21823e-5      92.3343
    4.21918e-5       99.703
    4.22013e-5      107.807
     4.2209e-5      114.974
    4.22179e-5       123.94
    4.22268e-5        133.7
    4.22357e-5      144.305
    4.22446e-5      155.803
    4.22535e-5       168.24
    4.22615e-5      180.119
    4.22694e-5      192.801
    4.22773e-5      206.309
    4.22852e-5      220.662
    4.22971e-5      243.804
    4.23089e-5      268.897
    4.23208e-5      295.925
    4.23327e-5      324.833
    4.23446e-5      355.519
    4.23604e-5      398.929
    4.23802e-5      456.461
    4.24356e-5      624.252
    4.24578e-5       686.85
     4.2472e-5      723.371
    4.24847e-5      752.554
    4.24973e-5      778.058
      4.251e-5      799.372
    4.25227e-5      816.055
    4.25345e-5      827.176
    4.25464e-5      833.711
    4.25573e-5      835.565
    4.25698e-5      832.791
    4.25812e-5      825.664
    4.25947e-5      811.903
    4.26058e-5      796.413
    4.26177e-5      775.951
    4.26303e-5      750.127
    4.26438e-5      718.739
     4.2658e-5      681.818
     4.2681e-5      616.519
    4.27364e-5      449.026
    4.27562e-5      392.022
     4.2772e-5      349.125
    4.27839e-5      318.855
    4.27958e-5      290.376
    4.28076e-5      263.778
    4.28195e-5      239.109
    4.28314e-5      216.375
    4.28393e-5      202.283
    4.28472e-5      189.025
    4.28551e-5      176.582
    4.28654e-5      161.582
    4.28731e-5      151.172
    4.28809e-5      141.451
    4.28886e-5      132.387
    4.28963e-5       123.95
    4.29044e-5      115.721
    4.29125e-5      108.109
    4.29206e-5      101.079
    4.29287e-5       94.591
    4.29369e-5      88.6095
     4.2945e-5      83.0985
    4.29531e-5      78.0235
    4.29612e-5      73.3515
    4.29708e-5      68.2773
    4.29805e-5       63.679
    4.29901e-5      59.5103
    4.29998e-5      55.7287
    4.30094e-5      52.2951
    4.30191e-5      49.1738
    4.30287e-5      46.3326
    4.30384e-5      43.7423
     4.3048e-5      41.3764
    4.30577e-5      39.2115
    4.30683e-5      37.0391
    4.30808e-5      34.7214
    4.30933e-5      32.6363
    4.31058e-5      30.7535
    4.31183e-5       29.047
    4.31308e-5      27.4947
    4.31433e-5      26.0776
    4.31558e-5      24.7795
    4.31725e-5      23.2102
    4.31892e-5      21.8007
    4.32045e-5        20.63
    4.32253e-5      19.1942
    4.32462e-5      17.9166
     4.3267e-5      16.7735
    4.32878e-5      15.7455
    4.33087e-5      14.8173
    4.33289e-5           14
    4.33491e-5      13.2544
    4.33733e-5      12.4424
    4.33936e-5      11.8266
    4.34239e-5      10.9926
    4.34542e-5      10.2513
    4.34845e-5      9.58857
    4.35148e-5      8.99284
    4.35451e-5      8.45441
    4.35774e-5      7.93436
    4.36078e-5      7.49097
    4.36381e-5      7.08508
    4.36684e-5      6.71261
    4.37088e-5      6.26231
    4.37492e-5      5.85914
    4.37735e-5      5.63759
    4.38139e-5      5.29884
    4.38556e-5      4.98528
    4.38972e-5      4.70355
     4.3925e-5      4.53138
    4.39755e-5      4.24648
    4.40261e-5      3.99328
    4.40766e-5      3.76724
    4.41271e-5      3.56473
     4.4182e-5      3.36769
     4.4237e-5      3.19172
    4.42919e-5      3.03417
    4.43389e-5      2.91333
    4.43469e-5      2.89279
    4.44018e-5      2.76571
    4.44517e-5      2.66136
    4.45148e-5      2.54273
     4.4578e-5      2.43753
    4.46411e-5      2.34431
    4.47043e-5      2.26182
    4.47674e-5      2.18901
    4.48622e-5      2.09604
    4.49585e-5      2.01936
    4.50579e-5        1.957
    4.51574e-5      1.91014
    4.52568e-5      1.87749
    4.53563e-5      1.85817
    4.54558e-5      1.85185
    4.55538e-5      1.85833
    4.56518e-5      1.87761
    4.57498e-5      1.91028
    4.58478e-5      1.95742
    4.59458e-5      2.02051
     4.6011e-5       2.0723
     4.6076e-5      2.13268
    4.61411e-5       2.2027
    4.62062e-5      2.28355
    4.62713e-5      2.37668
    4.63364e-5      2.48394
    4.64014e-5      2.60761
    4.64665e-5      2.75063
    4.65218e-5      2.89017
    4.65674e-5      3.01969
     4.6613e-5      3.16461
    4.66585e-5      3.32752
    4.67041e-5      3.51173
    4.67496e-5      3.72145
    4.67838e-5      3.89876
     4.6818e-5      4.09648
    4.68521e-5      4.31839
    4.68772e-5      4.49925
    4.69045e-5       4.7172
    4.69319e-5      4.96056
    4.69592e-5      5.23444
    4.69865e-5      5.54564
     4.7007e-5      5.80895
    4.70275e-5      6.10344
     4.7048e-5       6.4357
    4.70685e-5      6.81427
    4.70871e-5      7.20588
    4.71017e-5      7.55507
    4.71164e-5       7.9465
     4.7131e-5      8.38791
    4.71456e-5      8.88857
    4.71603e-5      9.45952
      4.717e-5      9.88559
    4.71798e-5      10.3531
    4.71896e-5      10.8669
    4.71993e-5      11.4325
    4.72091e-5      12.0557
    4.72189e-5      12.7429
    4.72286e-5      13.5013
    4.72384e-5      14.3382
    4.72481e-5      15.2617
    4.72579e-5      16.2803
    4.72677e-5      17.4028
    4.72774e-5      18.6385
    4.72872e-5      19.9969
     4.7297e-5      21.4876
    4.73067e-5      23.1201
    4.73165e-5      24.9039
    4.73262e-5       26.848
     4.7336e-5      28.9608
    4.73468e-5      31.5047
    4.73554e-5      33.6875
     4.7364e-5      36.0158
    4.73726e-5      38.4921
    4.73855e-5      42.4865
    4.73983e-5      46.8155
    4.74112e-5      51.4706
    4.74269e-5       57.525
    4.74425e-5      63.9839
    4.74633e-5      73.1009
    4.75206e-5      99.1635
    4.75362e-5      105.878
    4.75513e-5       111.93
    4.75653e-5      117.048
     4.7581e-5      122.014
    4.75966e-5      126.092
    4.76109e-5      128.952
    4.76226e-5      130.619
    4.76382e-5      131.851
    4.76455e-5       132.03
    4.76611e-5      131.565
    4.76731e-5      130.438
    4.76851e-5      128.667
    4.77007e-5      125.449
    4.77163e-5      121.303
    4.77319e-5      116.359
    4.77424e-5      112.691
    4.77632e-5      104.672
    4.77996e-5      89.4493
    4.78309e-5       76.429
    4.78465e-5      70.2693
    4.78621e-5      64.4735
    4.78777e-5      59.1136
    4.78906e-5      55.0565
    4.79035e-5      51.3499
    4.79164e-5      48.0045
    4.79293e-5       45.024
    4.79422e-5       42.406
    4.79517e-5      40.7038
    4.79621e-5      39.0555
    4.79725e-5      37.6279
    4.79829e-5      36.4137
    4.79954e-5      35.2273
    4.80063e-5      34.4216
    4.80173e-5      33.8239
    4.80282e-5      33.4263
    4.80391e-5       33.222
    4.80464e-5      33.1904
    4.80574e-5      33.2969
    4.80683e-5      33.5859
    4.80793e-5      34.0568
    4.80902e-5      34.7114
    4.81011e-5      35.5541
    4.81105e-5      36.4267
    4.81218e-5      37.6907
    4.81332e-5      39.1893
    4.81446e-5      40.9413
    4.81559e-5      42.9699
    4.81673e-5      45.3035
    4.81787e-5      47.9755
    4.81872e-5      50.2248
    4.81957e-5       52.705
    4.82053e-5      55.7998
    4.82149e-5       59.246
    4.82245e-5      63.0797
    4.82341e-5        67.34
    4.82442e-5      72.3327
    4.82518e-5      76.4507
    4.82594e-5      80.9156
    4.82669e-5      85.7526
    4.82745e-5      90.9882
    4.82821e-5      96.6498
    4.82897e-5      102.765
    4.82973e-5      109.364
    4.83048e-5      116.474
    4.83124e-5      124.126
      4.832e-5      132.349
    4.83301e-5       144.25
    4.83397e-5      156.604
    4.83488e-5        169.3
    4.83584e-5      183.794
    4.83685e-5      200.312
    4.83786e-5      218.163
    4.83887e-5      237.377
    4.83985e-5       257.44
    4.84081e-5      278.252
     4.8418e-5      300.893
    4.84281e-5       325.43
     4.8442e-5      361.372
    4.84554e-5      397.822
    4.84715e-5      444.324
    4.84968e-5      520.601
    4.85356e-5      639.515
    4.85563e-5      699.405
    4.85746e-5      747.759
    4.85929e-5      790.038
    4.86051e-5       814.07
    4.86173e-5      834.292
    4.86328e-5      853.999
    4.86441e-5      863.734
    4.86563e-5       869.74
    4.86658e-5      871.098
    4.86782e-5      868.446
    4.86904e-5      861.027
    4.87032e-5      848.251
    4.87136e-5      834.337
    4.87258e-5      814.136
     4.8738e-5      790.133
    4.87563e-5      747.905
    4.87746e-5      699.612
    4.87929e-5      646.937
    4.88538e-5      461.018
    4.88721e-5      407.714
    4.88843e-5      373.853
    4.88965e-5      341.598
    4.89072e-5      314.824
    4.89209e-5      282.524
    4.89301e-5      262.367
    4.89392e-5      243.331
    4.89477e-5      226.577
    4.89563e-5      210.796
    4.89648e-5      195.973
    4.89734e-5      182.089
    4.89819e-5      169.118
    4.89904e-5      157.029
     4.8999e-5      145.789
    4.90075e-5      135.361
    4.90155e-5      126.287
    4.90235e-5      117.858
    4.90315e-5       110.04
    4.90395e-5      102.799
    4.90475e-5      96.1011
    4.90555e-5      89.9113
    4.90635e-5      84.1965
    4.90715e-5      78.9245
    4.90795e-5      74.0639
    4.90875e-5      69.5848
    4.90963e-5      65.0827
    4.91066e-5      60.2896
    4.91169e-5      55.9766
    4.91272e-5      52.0941
    4.91374e-5      48.5964
    4.91477e-5      45.4422
     4.9158e-5      42.5938
    4.91683e-5      40.0176
    4.91786e-5      37.6831
    4.91889e-5      35.5634
    4.91992e-5      33.6344
    4.92102e-5      31.7505
    4.92217e-5      29.9826
    4.92331e-5      28.3765
    4.92445e-5      26.9127
     4.9256e-5      25.5742
    4.92712e-5      23.9597
    4.92864e-5      22.5131
    4.93017e-5      21.2101
    4.93169e-5      20.0307
    4.93352e-5      18.7556
    4.93512e-5      17.7479
    4.93672e-5      16.8276
    4.93886e-5       15.718
    4.94099e-5      14.7239
    4.94313e-5      13.8285
    4.94526e-5      13.0184
    4.94739e-5      12.2823
    4.94953e-5       11.611
    4.95212e-5      10.8717
    4.95471e-5      10.2049
     4.9573e-5      9.60106
    4.95989e-5      9.05214
    4.96248e-5      8.55146
    4.96508e-5      8.09335
    4.96767e-5      7.67297
    4.97026e-5      7.28618
    4.97359e-5      6.83234
    4.97692e-5      6.42172
    4.98026e-5       6.0489
    4.98359e-5      5.70928
    4.98692e-5      5.39898
    4.99026e-5      5.11465
    4.99359e-5      4.85344
    4.99692e-5      4.61286
    5.00033e-5      4.38584
    5.00545e-5      4.07724
    5.01056e-5      3.80195
    5.01568e-5      3.55529
    5.02079e-5      3.33339
     5.0242e-5      3.19761
    5.02926e-5      3.01233
    5.03431e-5      2.84397
    5.03936e-5      2.69059
    5.04441e-5      2.55056
    5.05047e-5      2.39822
    5.05654e-5      2.26114
    5.06381e-5      2.11432
    5.07088e-5      1.98724
    5.07897e-5      1.85697
    5.08826e-5      1.72212
    5.09736e-5      1.60326
    5.10559e-5      1.50669
    5.11236e-5      1.43511
    5.11969e-5      1.36496
    5.12726e-5      1.29934
    5.13737e-5      1.22117
    5.14722e-5      1.15364
    5.15707e-5       1.0935
    5.16679e-5      1.04046
    5.17627e-5     0.994146
    5.18574e-5     0.952563
    5.19521e-5     0.915251
    5.20784e-5     0.871481
    5.22137e-5     0.831412
    5.23219e-5     0.803969
    5.24301e-5     0.780303
    5.24561e-5       0.7756
    5.25744e-5      0.75423
    5.27186e-5     0.734106
    5.28228e-5     0.723197
     5.2927e-5     0.715332
    5.30312e-5     0.710559
    5.31354e-5      0.70899
    5.32384e-5      0.71076
    5.33413e-5     0.716078
    5.34442e-5      0.72528
    5.35472e-5     0.738834
    5.36482e-5     0.757012
     5.3724e-5     0.774382
    5.37922e-5     0.793346
    5.38566e-5     0.814854
     5.3921e-5     0.840733
    5.39816e-5     0.869851
    5.40544e-5      0.91131
    5.41352e-5     0.964559
    5.42544e-5      1.05133
    5.43434e-5      1.12252
     5.4404e-5      1.17811
    5.44505e-5      1.22696
    5.44868e-5      1.26997
    5.45272e-5      1.32345
    5.45689e-5      1.38562
    5.46119e-5      1.45799
    5.46548e-5       1.5398
    5.46977e-5      1.63229
    5.47318e-5      1.71438
    5.47697e-5      1.81584
    5.48076e-5      1.92968
    5.48455e-5      2.05792
    5.48834e-5      2.20303
    5.49087e-5      2.31065
    5.49349e-5      2.43292
    5.49621e-5      2.57257
    5.49892e-5      2.72726
    5.50164e-5      2.89932
    5.50436e-5      3.09159
     5.5064e-5      3.25112
    5.50844e-5      3.42576
    5.51048e-5      3.61764
    5.51252e-5      3.82934
    5.51387e-5      3.98299
    5.51582e-5       4.2234
    5.51777e-5      4.49091
    5.51972e-5      4.79033
    5.52118e-5      5.03937
    5.52265e-5      5.31275
    5.52411e-5      5.61415
    5.52557e-5      5.94791
    5.52703e-5      6.31928
    5.52849e-5      6.73448
    5.52984e-5      7.16307
    5.53097e-5      7.55857
    5.53209e-5      7.99384
    5.53322e-5      8.47419
    5.53434e-5      9.00561
    5.53547e-5      9.59492
    5.53659e-5      10.2498
    5.53772e-5      10.9789
    5.53884e-5      11.7918
    5.53997e-5      12.6993
    5.54109e-5      13.7132
    5.54206e-5       14.688
    5.54296e-5      15.6753
    5.54386e-5      16.7545
    5.54476e-5      17.9339
    5.54566e-5       19.222
    5.54656e-5      20.6277
    5.54746e-5      22.1606
    5.54836e-5      23.8302
    5.54926e-5      25.6465
    5.55016e-5      27.6195
    5.55106e-5      29.7592
    5.55196e-5      32.0757
    5.55286e-5      34.5786
    5.55376e-5      37.2775
    5.55466e-5      40.1809
    5.55556e-5      43.2972
    5.55646e-5      46.6335
    5.55736e-5      50.1958
    5.55826e-5      53.9888
    5.55934e-5      58.8495
    5.56042e-5       64.049
     5.5615e-5      69.5853
    5.56297e-5      77.6489
    5.56453e-5      86.8374
     5.5663e-5      97.9699
     5.5681e-5      109.929
     5.5717e-5      134.989
    5.57469e-5       155.81
    5.57649e-5      167.645
    5.57829e-5      178.586
    5.58009e-5      188.308
    5.58189e-5      196.507
    5.58309e-5      200.992
    5.58429e-5      204.613
    5.58555e-5      207.425
    5.58681e-5      209.177
    5.58821e-5      209.844
    5.58933e-5      209.398
    5.59041e-5      208.149
    5.59185e-5      205.264
    5.59305e-5      201.835
    5.59425e-5      197.532
    5.59605e-5      189.581
    5.59785e-5      180.071
    5.59965e-5      169.302
    5.60205e-5      153.544
    5.60804e-5      111.829
    5.60984e-5      99.8141
    5.61146e-5      89.5227
    5.61272e-5      81.9335
    5.61398e-5      74.7498
    5.61535e-5      67.4563
    5.61661e-5      61.1927
    5.61787e-5      55.3868
    5.61881e-5      51.3324
    5.61996e-5      46.7215
    5.62101e-5      42.8511
    5.62206e-5      39.2769
    5.62311e-5      35.9872
    5.62416e-5      32.9688
    5.62521e-5      30.2074
      5.626e-5      28.2959
    5.62679e-5      26.5138
    5.62757e-5      24.8545
    5.62844e-5      23.1701
    5.62934e-5      21.5516
    5.63024e-5      20.0656
    5.63114e-5      18.7027
    5.63204e-5      17.4536
    5.63294e-5      16.3097
    5.63384e-5      15.2625
    5.63474e-5      14.3041
    5.63564e-5      13.4271
    5.63653e-5      12.6245
    5.63743e-5      11.8897
    5.63856e-5      11.0573
    5.63968e-5      10.3107
    5.64081e-5      9.64001
    5.64193e-5      9.03649
    5.64306e-5      8.49232
    5.64418e-5      8.00057
    5.64531e-5      7.55509
    5.64643e-5      7.15048
    5.64756e-5      6.78198
    5.64868e-5      6.44541
    5.64992e-5      6.10773
    5.65138e-5      5.74707
    5.65284e-5      5.42244
     5.6543e-5      5.12889
    5.65577e-5      4.86227
    5.65723e-5      4.61908
    5.65918e-5      4.32629
    5.66113e-5      4.06429
    5.66308e-5      3.82851
    5.66503e-5      3.61522
    5.66708e-5      3.41153
    5.66913e-5      3.22654
    5.67119e-5      3.05786
    5.67324e-5      2.90349
    5.67529e-5      2.76175
    5.67837e-5      2.56979
    5.68145e-5      2.39915
    5.68411e-5      2.26671
    5.68677e-5      2.14607
    5.68942e-5      2.03584
    5.69208e-5       1.9348
    5.69473e-5      1.84194
    5.69872e-5       1.7161
     5.7027e-5      1.60424
    5.70589e-5      1.52345
    5.70907e-5      1.44947
    5.71226e-5      1.38154
    5.71667e-5      1.29641
    5.72033e-5      1.23251
    5.72522e-5      1.15571
    5.73053e-5      1.08155
    5.73584e-5       1.0155
    5.74179e-5     0.949455
    5.74774e-5     0.890366
    5.75411e-5     0.833593
    5.76048e-5     0.782781
    5.76702e-5      0.73628
    5.77413e-5     0.691386
    5.78184e-5     0.648695
     5.7898e-5     0.609966
    5.79777e-5     0.575859
    5.80515e-5     0.547765
    5.81224e-5     0.523551
    5.81933e-5     0.501765
    5.82691e-5     0.480968
    5.83448e-5      0.46276
    5.84181e-5     0.448052
    5.84635e-5     0.440828
     5.8509e-5     0.435591
    5.85545e-5      0.43291
    5.85772e-5     0.432704
    5.86202e-5     0.434593
    5.86631e-5     0.439453
    5.87167e-5     0.448824
    5.87874e-5     0.462532
    5.88278e-5     0.467952
    5.88632e-5     0.469589
    5.88956e-5     0.467826
    5.89268e-5      0.46293
    5.89571e-5      0.45528
    5.89874e-5     0.445163
    5.90279e-5     0.428892
    5.91127e-5     0.391537
    5.91531e-5     0.375375
    5.91948e-5     0.361086
    5.92365e-5     0.349452
    5.92769e-5     0.340535
    5.93148e-5     0.333957
    5.93653e-5     0.327242
    5.94411e-5     0.320111
    5.95396e-5     0.313833
    5.96495e-5     0.309091
    5.97594e-5     0.306071
    5.98825e-5     0.304529
    5.99236e-5     0.304446
    6.00341e-5     0.305336
    6.01446e-5     0.307958
    6.02551e-5     0.312511
    6.03656e-5     0.319284
    6.04686e-5     0.327943
    6.05458e-5     0.336191
     6.0623e-5     0.346207
    6.07002e-5     0.358297
    6.07775e-5     0.372851
    6.08387e-5     0.386481
       6.09e-5     0.402289
    6.09613e-5     0.420665
    6.10226e-5     0.442097
    6.10685e-5     0.460544
    6.11145e-5     0.481379
    6.11605e-5     0.504999
    6.12064e-5     0.531889
    6.12524e-5     0.562654
    6.12838e-5     0.586318
    6.13161e-5     0.613147
    6.13483e-5      0.64294
    6.13806e-5      0.67615
    6.14128e-5     0.713324
    6.14451e-5     0.755133
    6.14773e-5     0.802407
    6.15015e-5     0.842066
    6.15257e-5     0.885924
    6.15496e-5     0.933957
    6.15734e-5     0.987503
    6.15973e-5      1.04753
    6.16212e-5      1.11528
    6.16391e-5      1.17209
     6.1657e-5      1.23494
    6.16749e-5      1.30485
    6.16928e-5      1.38307
    6.17107e-5      1.47116
    6.17257e-5      1.55393
    6.17392e-5      1.63692
    6.17528e-5      1.72896
    6.17663e-5      1.83145
    6.17799e-5      1.94604
    6.17934e-5      2.07467
     6.1807e-5      2.21958
    6.18205e-5      2.38337
    6.18295e-5      2.50453
    6.18386e-5      2.63642
    6.18476e-5      2.78013
    6.18566e-5      2.93685
    6.18676e-5      3.14651
    6.18773e-5      3.35105
    6.18869e-5      3.57587
    6.18966e-5      3.82303
    6.19063e-5       4.0947
     6.1916e-5      4.39321
    6.19256e-5      4.72105
    6.19353e-5      5.08082
     6.1945e-5      5.47523
    6.19547e-5      5.90712
    6.19643e-5       6.3794
    6.19747e-5      6.93104
     6.1985e-5      7.53564
    6.19953e-5      8.19683
    6.20056e-5      8.91817
    6.20159e-5      9.70307
    6.20263e-5      10.5547
    6.20366e-5      11.4761
    6.20469e-5      12.4698
    6.20594e-5      13.7749
    6.20595e-5      13.7815
    6.20721e-5      15.2064
    6.20846e-5      16.7456
    6.20972e-5      18.3986
    6.21098e-5      20.1632
    6.21246e-5      22.3714
    6.21404e-5      24.8945
    6.21563e-5      27.5538
    6.21831e-5      32.2829
    6.22347e-5      41.5834
    6.22554e-5       45.088
     6.2276e-5      48.2959
    6.22915e-5      50.4373
     6.2307e-5       52.301
    6.23225e-5      53.8458
     6.2338e-5      55.0369
    6.23539e-5      55.8669
    6.23699e-5      56.2692
    6.23766e-5      56.3078
    6.23916e-5      56.1158
    6.24035e-5       55.693
    6.24195e-5       54.756
    6.24339e-5      53.5655
    6.24494e-5      51.9557
    6.24649e-5      50.0356
    6.24804e-5      47.8476
     6.2501e-5      44.5936
    6.25217e-5      41.0616
    6.25805e-5      30.4809
    6.26022e-5       26.726
    6.26184e-5      24.0501
    6.26347e-5      21.5244
      6.265e-5      19.2944
    6.26636e-5       17.461
    6.26771e-5      15.7579
    6.26907e-5      14.1867
    6.26997e-5      13.2121
    6.27087e-5       12.295
    6.27178e-5      11.4343
    6.27281e-5      10.5177
    6.27384e-5      9.67026
    6.27487e-5      8.88904
     6.2759e-5      8.17086
    6.27694e-5      7.51233
    6.27797e-5      6.90994
      6.279e-5      6.36009
    6.28003e-5       5.8592
      6.281e-5       5.4309
    6.28197e-5      5.03962
    6.28293e-5      4.68258
     6.2839e-5      4.35709
    6.28487e-5      4.06058
    6.28584e-5      3.79062
     6.2868e-5      3.54491
    6.28777e-5      3.32129
    6.28874e-5      3.11776
    6.28971e-5      2.93245
    6.29077e-5       2.7476
    6.29203e-5      2.55202
    6.29329e-5      2.37828
    6.29455e-5      2.22362
     6.2958e-5      2.08562
    6.29706e-5      1.96212
    6.29832e-5      1.85128
    6.29958e-5      1.75147
    6.30083e-5      1.66128
    6.30209e-5      1.57951
    6.30377e-5      1.48178
    6.30556e-5       1.3896
    6.30735e-5      1.30792
    6.30914e-5      1.23508
    6.31093e-5      1.16972
    6.31272e-5      1.11075
    6.31451e-5      1.05728
     6.3169e-5     0.993284
    6.31928e-5     0.936367
    6.32167e-5     0.885433
    6.32447e-5     0.832025
    6.32689e-5      0.79078
    6.32931e-5     0.753359
    6.33254e-5     0.708592
    6.33576e-5     0.668844
    6.33899e-5     0.633371
    6.34221e-5     0.601568
    6.34544e-5     0.572938
    6.34866e-5      0.54707
    6.35278e-5     0.517553
    6.35689e-5     0.491378
      6.361e-5     0.468064
    6.36511e-5     0.447219
    6.36922e-5     0.428515
    6.37334e-5     0.411681
    6.37882e-5     0.391758
     6.3843e-5     0.374317
    6.38979e-5     0.359002
    6.39582e-5     0.344267
     6.4024e-5     0.330363
    6.40898e-5     0.318407
    6.41556e-5     0.308139
    6.42213e-5     0.299352
    6.42871e-5     0.291875
    6.43858e-5      0.28283
    6.44516e-5     0.278095
    6.45341e-5     0.273487
    6.46165e-5     0.270257
     6.4699e-5     0.268341
    6.47815e-5     0.267714
    6.48623e-5     0.268355
    6.49432e-5     0.270274
    6.50241e-5     0.273539
    6.51049e-5     0.278257
    6.51858e-5     0.284583
    6.52571e-5      0.29167
    6.53238e-5     0.299739
    6.53903e-5     0.309428
    6.54569e-5     0.321029
    6.55235e-5     0.334953
    6.55679e-5     0.345826
    6.56187e-5     0.360212
    6.56567e-5     0.372713
    6.56948e-5     0.387058
    6.57328e-5     0.403694
    6.57709e-5     0.423161
    6.58039e-5     0.442794
    6.58369e-5     0.465419
    6.58698e-5     0.491401
    6.59028e-5     0.521005
    6.59292e-5     0.547374
    6.59556e-5     0.576096
    6.59942e-5     0.622028
    6.60348e-5     0.674742
    6.60855e-5     0.745418
    6.61464e-5     0.835571
    6.61951e-5     0.913073
    6.62276e-5     0.969713
     6.6258e-5      1.02897
    6.62844e-5      1.08747
    6.63047e-5      1.13865
     6.6325e-5      1.19675
    6.63453e-5       1.2635
    6.63605e-5      1.32047
    6.63778e-5      1.39363
    6.63949e-5      1.47695
    6.64097e-5      1.55933
    6.64245e-5      1.65282
    6.64396e-5      1.76084
    6.64497e-5      1.84191
    6.64598e-5      1.93074
    6.64698e-5      2.02816
    6.64805e-5      2.14104
    6.64911e-5      2.26568
    6.65017e-5      2.40342
    6.65123e-5      2.55571
     6.6523e-5      2.72416
    6.65336e-5      2.91052
    6.65442e-5      3.11668
    6.65548e-5       3.3447
    6.65655e-5      3.59678
    6.65761e-5      3.87526
    6.65867e-5      4.18265
    6.65973e-5      4.52155
     6.6608e-5      4.89471
    6.66186e-5      5.30493
    6.66292e-5      5.75513
    6.66398e-5       6.2482
    6.66494e-5      6.73104
    6.66589e-5      7.25305
    6.66696e-5      7.88148
    6.66802e-5      8.56339
     6.6689e-5      9.17554
    6.66982e-5      9.85214
    6.67099e-5      10.7768
    6.67216e-5      11.7754
    6.67322e-5      12.7482
    6.67429e-5      13.7835
    6.67535e-5       14.881
    6.67694e-5      16.6414
    6.67853e-5      18.5329
    6.68013e-5      20.5446
    6.68225e-5      23.3864
    6.68541e-5      27.8466
     6.6896e-5      33.8366
    6.69174e-5      36.7364
    6.69388e-5      39.4026
    6.69549e-5      41.1912
    6.69709e-5      42.7563
     6.6987e-5      44.0634
     6.7003e-5      45.0828
    6.70202e-5      45.8265
    6.70373e-5      46.1963
    6.70451e-5      46.2376
    6.70598e-5      46.0986
    6.70715e-5      45.7842
    6.70887e-5      45.0135
    6.71047e-5      43.9707
    6.71208e-5      42.6424
    6.71368e-5      41.0587
    6.71529e-5      39.2545
    6.71743e-5      36.5721
    6.71957e-5      33.6616
    6.72566e-5      24.9493
    6.72791e-5      21.8603
     6.7296e-5      19.6601
    6.73128e-5      17.5844
    6.73287e-5      15.7526
    6.73428e-5      14.2473
    6.73568e-5      12.8498
    6.73662e-5      11.9786
    6.73756e-5      11.1557
    6.73849e-5      10.3805
    6.73943e-5      9.65237
    6.74043e-5      8.92307
     6.7415e-5      8.20136
    6.74257e-5      7.53544
    6.74364e-5      6.92274
    6.74471e-5      6.36054
    6.74578e-5      5.84595
    6.74685e-5      5.37603
    6.74792e-5       4.9478
    6.74877e-5        4.636
    6.74971e-5      4.31723
    6.75065e-5      4.02461
    6.75159e-5      3.75625
    6.75253e-5      3.51034
    6.75347e-5      3.28517
    6.75441e-5      3.07906
    6.75535e-5      2.89048
    6.75629e-5      2.71795
    6.75723e-5       2.5601
    6.75817e-5      2.41564
    6.75936e-5      2.24911
    6.76025e-5      2.13754
    6.76157e-5      1.98635
     6.7629e-5      1.85233
    6.76423e-5      1.73325
    6.76555e-5      1.62717
    6.76688e-5      1.53238
     6.7682e-5      1.44742
    6.76953e-5      1.37101
    6.77086e-5      1.30206
    6.77218e-5      1.23961
     6.7737e-5      1.17517
    6.77531e-5       1.1137
    6.77692e-5      1.05845
    6.77853e-5      1.00855
    6.78014e-5     0.963279
     6.7821e-5      0.91363
    6.78387e-5     0.873171
    6.78576e-5     0.833798
    6.78778e-5     0.795722
     6.7898e-5     0.761139
    6.79283e-5      0.71479
    6.79587e-5     0.673922
     6.7989e-5     0.637488
    6.80213e-5     0.602582
    6.80607e-5     0.564465
    6.80961e-5       0.5336
    6.81365e-5      0.50152
    6.81769e-5     0.472389
    6.82173e-5     0.445929
    6.82618e-5     0.419711
    6.83022e-5     0.398364
    6.83439e-5     0.378675
    6.83855e-5     0.361159
    6.84133e-5     0.350578
    6.84638e-5     0.333325
    6.85144e-5      0.31828
    6.85649e-5     0.305065
    6.86337e-5     0.289452
    6.86886e-5     0.278608
    6.87619e-5      0.26597
    6.88352e-5     0.255061
    6.89084e-5     0.245591
    6.89979e-5      0.23565
    6.90874e-5     0.227211
     6.9177e-5     0.220031
    6.92665e-5     0.213918
    6.93858e-5     0.207165
    6.95034e-5     0.201832
    6.96209e-5      0.19762
    6.97665e-5     0.193825
    6.99071e-5     0.191664
    7.03139e-5     0.189333
    7.04028e-5     0.189058
     7.0551e-5     0.189506
    7.07043e-5     0.191136
    7.08899e-5     0.194355
    7.10493e-5     0.198204
    7.11502e-5     0.201389
    7.12458e-5     0.205336
    7.13387e-5     0.210503
    7.14423e-5     0.218002
    7.16845e-5     0.238485
    7.17589e-5     0.246133
    7.18226e-5     0.254282
    7.19579e-5     0.274337
    7.20084e-5     0.280392
    7.20546e-5     0.284056
    7.20953e-5     0.285555
    7.21155e-5     0.285704
    7.21661e-5     0.284623
    7.23115e-5      0.27726
    7.23775e-5     0.275815
    7.23829e-5       0.2758
    7.24366e-5     0.276516
     7.2501e-5     0.279254
    7.25692e-5     0.283872
     7.2645e-5     0.290422
     7.2746e-5     0.300688
    7.28647e-5     0.314429
    7.29835e-5     0.329862
    7.31022e-5     0.347106
    7.32209e-5     0.366376
    7.33362e-5     0.387289
    7.34208e-5     0.404491
    7.34514e-5     0.410702
    7.35666e-5     0.437008
    7.36531e-5     0.458921
    7.37458e-5     0.484804
    7.38416e-5     0.514518
    7.39375e-5     0.547696
    7.40333e-5     0.584896
    7.41292e-5     0.626796
    7.42225e-5     0.672892
    7.43106e-5     0.722157
    7.43694e-5     0.758578
    7.44282e-5     0.798284
     7.4501e-5     0.852696
    7.45739e-5     0.913818
    7.46454e-5     0.981559
    7.47144e-5      1.05533
    7.47737e-5      1.12637
    7.48351e-5      1.20834
    7.48862e-5      1.28412
    7.49404e-5      1.37294
    7.49905e-5        1.464
    7.50416e-5      1.56727
    7.50927e-5      1.68286
    7.51336e-5      1.78575
    7.51683e-5      1.88163
    7.52092e-5      2.00577
    7.52524e-5      2.15228
    7.52857e-5       2.2774
    7.53189e-5      2.41494
    7.53521e-5      2.56665
    7.53811e-5      2.71195
     7.5418e-5      2.91823
    7.54427e-5      3.07048
    7.54673e-5      3.23621
     7.5492e-5      3.41722
    7.55167e-5      3.61559
    7.55413e-5      3.83386
     7.5566e-5       4.0751
    7.55887e-5      4.32116
    7.56114e-5      4.59362
    7.56342e-5      4.89702
    7.56569e-5      5.23701
     7.5674e-5      5.52028
     7.5691e-5      5.83184
     7.5708e-5      6.17618
    7.57251e-5      6.55871
    7.57422e-5      6.98594
    7.57554e-5      7.35412
    7.57706e-5      7.81948
    7.57857e-5      8.33973
    7.58009e-5      8.92389
    7.58122e-5      9.41026
    7.58236e-5       9.9436
     7.5835e-5      10.5297
    7.58463e-5      11.1749
    7.58577e-5      11.8865
    7.58691e-5      12.6723
    7.58807e-5      13.5616
    7.58923e-5       14.548
    7.59039e-5      15.6432
    7.59156e-5      16.8595
    7.59254e-5      17.9957
    7.59353e-5      19.2376
    7.59418e-5      20.1289
    7.59519e-5       21.607
     7.5962e-5      23.2243
    7.59721e-5      24.9927
    7.59822e-5      26.9245
    7.59923e-5      29.0322
    7.60024e-5       31.329
    7.60126e-5      33.8281
    7.60227e-5      36.5429
    7.60328e-5      39.4868
    7.60429e-5      42.6731
     7.6053e-5      46.1146
    7.60631e-5      49.8237
    7.60732e-5       53.812
    7.60833e-5      58.0899
    7.60934e-5      62.6669
    7.61035e-5      67.5508
    7.61146e-5      73.2846
    7.61279e-5      80.6721
    7.61419e-5      88.9885
     7.6157e-5      98.7075
    7.61714e-5      108.575
    7.61863e-5      119.404
    7.62066e-5      134.985
    7.62318e-5      155.643
    7.62962e-5      210.554
     7.6319e-5      229.116
    7.63417e-5      246.258
    7.63588e-5      257.815
    7.63759e-5      267.983
     7.6393e-5      276.541
    7.64101e-5      283.293
    7.64254e-5      287.698
     7.6442e-5      290.565
    7.64576e-5      291.445
    7.64744e-5      290.379
    7.64869e-5      288.243
       7.65e-5      284.817
    7.65171e-5      278.596
    7.65342e-5      270.527
    7.65513e-5      260.795
    7.65684e-5      249.615
    7.65855e-5      237.227
    7.66082e-5      219.272
    7.66481e-5       185.62
    7.66851e-5      154.126
    7.67065e-5      136.699
    7.67244e-5      122.769
    7.67381e-5      112.683
    7.67517e-5      103.106
    7.67654e-5       94.072
    7.67804e-5      84.8379
    7.67953e-5      76.2946
    7.68053e-5      70.9841
    7.68152e-5      65.9791
    7.68252e-5       61.275
    7.68352e-5      56.8655
    7.68451e-5      52.7426
    7.68565e-5      48.3698
    7.68679e-5      44.3437
    7.68793e-5      40.6473
    7.68907e-5      37.2627
    7.69021e-5      34.1711
    7.69106e-5      32.0334
    7.69192e-5      30.0418
    7.69277e-5      28.1885
    7.69362e-5      26.4654
    7.69469e-5       24.483
    7.69576e-5      22.6775
    7.69683e-5      21.0348
    7.69789e-5      19.5414
    7.69896e-5      18.1845
    7.70003e-5      16.9522
     7.7011e-5      15.8332
    7.70217e-5       14.817
    7.70323e-5      13.8939
     7.7043e-5       13.055
    7.70548e-5      12.2196
     7.7064e-5      11.6195
    7.70779e-5      10.8052
    7.70918e-5      10.0819
    7.71057e-5      9.43764
    7.71195e-5      8.86222
    7.71334e-5      8.34659
    7.71473e-5      7.88299
    7.71612e-5      7.46469
    7.71751e-5       7.0859
    7.71889e-5      6.74166
    7.72044e-5      6.39325
    7.72231e-5      6.01582
    7.72418e-5      5.67865
    7.72605e-5      5.37575
    7.72792e-5      5.10223
    7.72978e-5      4.85409
    7.73228e-5      4.55707
    7.73477e-5      4.29302
    7.73726e-5      4.05695
    7.73975e-5      3.84488
    7.74242e-5      3.64064
    7.74509e-5      3.45703
    7.74776e-5      3.29141
    7.75043e-5      3.14161
    7.75399e-5      2.96335
    7.75754e-5      2.80643
     7.7611e-5      2.66798
    7.76466e-5      2.54567
    7.76822e-5      2.43757
    7.77178e-5       2.3421
    7.77534e-5      2.25796
     7.7789e-5      2.18404
    7.78246e-5      2.11944
     7.7878e-5      2.03843
    7.79314e-5      1.97474
    7.79669e-5      1.94118
    7.80104e-5      1.90933
    7.80539e-5      1.88716
    7.80974e-5      1.87448
    7.81408e-5      1.87126
    7.81971e-5      1.88141
    7.82346e-5      1.89751
    7.82721e-5      1.92152
    7.83096e-5      1.95396
    7.83471e-5      1.99552
    7.83846e-5      2.04709
    7.84221e-5      2.10975
    7.84579e-5      2.18118
     7.8492e-5      2.26117
    7.85261e-5      2.35446
    7.85602e-5      2.46308
    7.85942e-5      2.58959
    7.86198e-5      2.69817
    7.86454e-5       2.8204
    7.86709e-5      2.95844
    7.86965e-5      3.11501
    7.87202e-5      3.27962
    7.87402e-5      3.43533
    7.87601e-5      3.60946
      7.878e-5      3.80521
       7.88e-5      4.02655
    7.88199e-5      4.27845
    7.88332e-5      4.46633
    7.88465e-5      4.67269
    7.88598e-5      4.90005
    7.88731e-5      5.15134
    7.88864e-5      5.42992
    7.88997e-5      5.73969
     7.8913e-5      6.08508
    7.89263e-5      6.47119
    7.89386e-5      6.86875
    7.89508e-5      7.31108
    7.89631e-5      7.80393
    7.89754e-5      8.35371
    7.89877e-5      8.96751
    7.89999e-5      9.65316
    7.90122e-5      10.4192
    7.90245e-5       11.275
    7.90326e-5      11.9004
    7.90408e-5      12.5732
     7.9049e-5      13.2969
    7.90606e-5      14.4159
    7.90708e-5      15.5019
    7.90811e-5      16.6881
    7.90913e-5      17.9819
    7.91015e-5      19.3911
    7.91117e-5      20.9236
     7.9122e-5      22.5872
    7.91322e-5      24.3897
    7.91424e-5      26.3387
    7.91526e-5      28.4417
    7.91629e-5      30.7056
    7.91758e-5      33.8144
    7.91854e-5      36.2837
    7.91949e-5      38.9092
    7.92092e-5      43.1466
    7.92236e-5       47.749
    7.92379e-5      52.7181
    7.92508e-5      57.5265
    7.92672e-5      64.0117
    7.92836e-5        70.93
     7.9304e-5      80.1236
    7.93256e-5      90.3465
    7.93976e-5      126.019
    7.94194e-5      136.301
    7.94401e-5      145.362
    7.94608e-5       153.47
    7.94772e-5      159.036
    7.94936e-5      163.745
    7.95099e-5      167.504
    7.95246e-5       170.01
    7.95394e-5       171.64
    7.95573e-5      172.406
    7.95588e-5      172.409
    7.95765e-5      171.725
     7.9589e-5      170.449
     7.9607e-5      167.505
    7.96234e-5      163.749
    7.96397e-5      159.044
    7.96561e-5      153.483
    7.96725e-5      147.178
    7.96943e-5      137.817
    7.97161e-5      127.643
    7.97597e-5      106.066
    7.97952e-5      88.5922
    7.98186e-5      77.5911
    7.98377e-5      69.1442
     7.9853e-5      62.7769
    7.98692e-5      56.4294
    7.98836e-5      51.2049
    7.98979e-5      46.3428
    7.99122e-5      41.8455
    7.99217e-5      39.0485
    7.99313e-5      36.4101
    7.99408e-5      33.9272
    7.99531e-5      30.9571
    7.99654e-5      28.2281
    7.99746e-5      26.3329
    7.99838e-5       24.562
     7.9993e-5      22.9102
    8.00022e-5      21.3719
    8.00114e-5      19.9415
    8.00206e-5      18.6135
    8.00298e-5       17.382
     8.0039e-5      16.2414
    8.00472e-5      15.2995
    8.00554e-5      14.4212
    8.00636e-5      13.6028
    8.00717e-5      12.8408
    8.00799e-5      12.1316
    8.00881e-5      11.4719
    8.00963e-5      10.8583
    8.01085e-5      10.0179
    8.01208e-5      9.26479
    8.01331e-5       8.5898
    8.01454e-5      7.98463
    8.01576e-5      7.44169
    8.01699e-5       6.9541
    8.01795e-5      6.60911
    8.01938e-5      6.14156
    8.02081e-5      5.72686
    8.02224e-5      5.35797
    8.02367e-5      5.02876
    8.02511e-5      4.73393
    8.02654e-5      4.46892
    8.02797e-5       4.2298
     8.0294e-5      4.01319
    8.03036e-5      3.87986
    8.03226e-5      3.63642
    8.03405e-5      3.43261
    8.03584e-5       3.2489
    8.03763e-5      3.08242
    8.03942e-5      2.93084
    8.04181e-5      2.74858
     8.0442e-5      2.58562
    8.04658e-5      2.43902
    8.04897e-5      2.30641
    8.05135e-5      2.18587
    8.05442e-5      2.04615
    8.05749e-5      1.92114
    8.06056e-5       1.8087
    8.06363e-5      1.70708
     8.0667e-5      1.61486
    8.06976e-5      1.53085
    8.07283e-5      1.45407
     8.0759e-5      1.38366
    8.07999e-5      1.29847
    8.08408e-5      1.22193
    8.08817e-5      1.15286
    8.09226e-5      1.09028
    8.09635e-5      1.03338
    8.10045e-5     0.981455
    8.10454e-5     0.933932
    8.10863e-5     0.890307
     8.1145e-5     0.833619
    8.12038e-5     0.783034
    8.12626e-5     0.737687
    8.13213e-5     0.696863
    8.13801e-5      0.65997
    8.14388e-5     0.626511
    8.14976e-5     0.596069
    8.15564e-5     0.568287
    8.16195e-5      0.54105
    8.16827e-5     0.516217
    8.17774e-5     0.482885
    8.18721e-5     0.453597
    8.19668e-5     0.427749
    8.20616e-5     0.404863
    8.21714e-5      0.38154
    8.22813e-5     0.361309
    8.23798e-5     0.345701
    8.24556e-5     0.335459
    8.25314e-5     0.327008
    8.26122e-5     0.320246
     8.2688e-5     0.316014
    8.30133e-5     0.305442
    8.30436e-5     0.305122
    8.30841e-5     0.305978
    8.31144e-5      0.30813
    8.31447e-5     0.312185
    8.31674e-5     0.316885
    8.31861e-5     0.322086
    8.32048e-5     0.328726
    8.32235e-5     0.337051
    8.32408e-5     0.346505
    8.32581e-5     0.357864
    8.32755e-5      0.37137
    8.32928e-5     0.387273
    8.33101e-5     0.405824
    8.33275e-5      0.42727
    8.33448e-5     0.451844
    8.33621e-5     0.479752
    8.33773e-5     0.507174
    8.33926e-5      0.53739
    8.34078e-5     0.570447
     8.3423e-5     0.606348
    8.34383e-5     0.645047
    8.34611e-5     0.708095
    8.34839e-5     0.776563
    8.35073e-5      0.85115
    8.35875e-5      1.12035
     8.3618e-5      1.21522
    8.36383e-5      1.27194
    8.36586e-5      1.32159
    8.36789e-5      1.36273
    8.36992e-5      1.39413
    8.37195e-5       1.4148
    8.37358e-5      1.42316
    8.37473e-5      1.42456
    8.37672e-5      1.41806
    8.37804e-5       1.4076
    8.38007e-5      1.38228
     8.3821e-5      1.34647
    8.38413e-5      1.30121
    8.38616e-5      1.24781
    8.38819e-5      1.18773
    8.39124e-5       1.0886
    8.39881e-5     0.827446
    8.40101e-5     0.754781
    8.40322e-5     0.686184
      8.405e-5     0.634548
    8.40678e-5     0.586435
    8.40855e-5      0.54204
    8.41033e-5      0.50145
    8.41211e-5      0.46466
    8.41344e-5     0.439511
    8.41477e-5      0.41639
     8.4161e-5     0.395219
    8.41744e-5     0.375906
    8.41871e-5     0.359148
    8.41998e-5      0.34389
    8.42124e-5     0.330034
    8.42315e-5     0.311666
    8.42505e-5       0.2959
    8.42696e-5     0.282418
    8.42886e-5     0.270917
    8.43076e-5     0.261119
    8.43267e-5     0.252773
    8.43521e-5     0.243522
    8.43774e-5     0.236006
      8.441e-5     0.228311
    8.44427e-5     0.222268
    8.44861e-5     0.216024
    8.45296e-5     0.211209
    8.45948e-5      0.20572
    8.46383e-5     0.202844
    8.47253e-5     0.198367
    8.48011e-5     0.195532
    8.48768e-5     0.193604
    8.49488e-5     0.192755
    8.49703e-5     0.192732
    8.50347e-5     0.193463
    8.50991e-5     0.195672
    8.51421e-5     0.198127
     8.5185e-5     0.201445
    8.52466e-5     0.207723
    8.53073e-5     0.215469
    8.54124e-5     0.231177
    8.54952e-5     0.243246
    8.55452e-5     0.249056
    8.55822e-5     0.252102
    8.56231e-5      0.25386
    8.56384e-5     0.254028
    8.56752e-5     0.253263
     8.5713e-5     0.250747
    8.57478e-5     0.246987
    8.57887e-5     0.241073
      8.585e-5     0.230227
    8.59384e-5     0.213916
     8.5989e-5     0.205872
    8.60274e-5      0.20082
    8.60657e-5     0.196742
     8.6104e-5     0.193604
    8.61577e-5     0.190595
    8.62091e-5     0.188928
    8.62812e-5     0.187992
    8.63172e-5     0.187951
    8.64183e-5     0.188821
    8.65193e-5     0.190765
    8.66507e-5     0.194615
    8.68622e-5     0.201748
    8.68719e-5     0.202076
    8.70387e-5     0.205861
    8.71786e-5     0.208857
    8.73276e-5     0.213506
    8.74943e-5     0.220565
    8.76914e-5     0.230757
    8.78808e-5     0.242299
    8.80703e-5     0.255735
    8.81965e-5     0.265891
    8.83242e-5     0.277257
    8.84519e-5     0.289864
    8.85795e-5     0.303866
    8.87072e-5     0.319447
    8.88267e-5     0.335657
    8.89462e-5      0.35365
    8.90657e-5     0.373678
    8.91852e-5     0.396045
    8.92861e-5      0.41703
     8.9387e-5      0.44024
     8.9472e-5     0.461773
     8.9557e-5     0.485378
    8.96674e-5     0.519542
    8.97737e-5      0.55645
    8.98767e-5     0.596401
    8.99776e-5     0.640079
    9.00626e-5     0.681079
    9.01157e-5     0.709026
    9.01943e-5      0.75419
     9.0258e-5      0.79458
    9.03218e-5     0.838793
    9.03895e-5     0.890482
    9.04652e-5     0.954789
    9.05409e-5      1.02706
    9.05926e-5      1.08178
    9.06457e-5      1.14296
    9.06989e-5       1.2099
     9.0752e-5      1.28335
    9.08051e-5      1.36419
    9.08582e-5      1.45346
    9.09113e-5       1.5524
    9.09644e-5      1.66248
    9.10095e-5      1.76606
    9.10466e-5      1.85918
    9.10838e-5      1.96035
    9.11209e-5      2.07054
     9.1158e-5      2.19091
    9.11951e-5      2.32279
    9.12322e-5      2.46775
    9.12693e-5      2.62767
     9.1303e-5      2.78766
    9.13333e-5      2.94511
    9.13635e-5       3.1173
    9.13938e-5      3.30625
    9.14241e-5      3.51436
    9.14544e-5      3.74455
    9.14846e-5      4.00037
    9.15149e-5      4.28626
    9.15414e-5      4.56541
    9.15641e-5      4.82989
    9.15868e-5      5.12148
    9.16095e-5      5.44464
    9.16322e-5      5.80494
    9.16492e-5      6.10365
    9.16663e-5      6.43069
    9.16833e-5      6.79029
    9.17003e-5       7.1875
    9.17166e-5      7.60773
    9.17314e-5      8.02854
    9.17461e-5      8.49271
    9.17609e-5      9.00657
    9.17756e-5       9.5775
    9.17904e-5       10.214
    9.18052e-5      10.9259
    9.18199e-5      11.7245
    9.18347e-5      12.6226
    9.18445e-5      13.2839
    9.18543e-5      14.0007
    9.18642e-5      14.7783
    9.18767e-5      15.8618
     9.1888e-5      16.9504
    9.18994e-5      18.1481
    9.19107e-5      19.4662
    9.19221e-5      20.9166
    9.19334e-5      22.5121
    9.19448e-5      24.2663
    9.19561e-5      26.1938
    9.19675e-5      28.3095
    9.19788e-5      30.6294
    9.19902e-5      33.1699
    9.19993e-5      35.3724
    9.20084e-5      37.7356
    9.20205e-5       41.152
    9.20326e-5       44.891
    9.20447e-5      48.9734
    9.20568e-5      53.4194
    9.20689e-5      58.2484
     9.2081e-5      63.4784
    9.20924e-5        68.76
     9.2103e-5      74.0305
    9.21136e-5      79.6381
    9.21241e-5      85.5888
      9.214e-5      95.1657
    9.21559e-5      105.525
    9.21718e-5      116.655
    9.21864e-5      127.483
    9.22009e-5        138.9
    9.22227e-5      157.025
    9.22481e-5      179.427
    9.23268e-5      251.943
     9.2351e-5      273.067
    9.23753e-5      292.488
    9.23934e-5      305.537
    9.24116e-5      316.991
    9.24297e-5      326.611
    9.24479e-5      334.192
    9.24679e-5       339.98
    9.24818e-5      342.351
    9.24983e-5      343.343
    9.25145e-5      342.384
    9.25278e-5      340.172
    9.25472e-5      334.722
    9.25654e-5      327.323
    9.25835e-5      317.874
    9.26017e-5      306.579
    9.26199e-5      293.674
    9.26441e-5      274.417
    9.26683e-5      253.425
    9.27228e-5      203.277
    9.27543e-5      174.588
    9.27755e-5      156.107
    9.27945e-5      140.295
    9.28136e-5      125.407
    9.28295e-5      113.779
    9.28454e-5      102.903
    9.28613e-5      92.8004
    9.28719e-5      86.4997
    9.28825e-5      80.5456
    9.28931e-5      74.9344
    9.29044e-5      69.2968
    9.29165e-5         63.7
    9.29286e-5        58.52
    9.29407e-5      53.7409
    9.29529e-5      49.3451
     9.2965e-5      45.3139
    9.29771e-5      41.6275
    9.29892e-5      38.2659
    9.29991e-5      35.7369
    9.30107e-5      33.0206
    9.30224e-5      30.5519
     9.3034e-5      28.3135
    9.30456e-5      26.2887
    9.30573e-5      24.4615
    9.30689e-5      22.8168
    9.30805e-5      21.3402
    9.30921e-5      20.0183
    9.31038e-5      18.8386
    9.31154e-5      17.7895
    9.31247e-5      17.0368
    9.31356e-5      16.2487
    9.31464e-5       15.551
    9.31573e-5       14.937
    9.31682e-5      14.4004
     9.3179e-5      13.9356
    9.31899e-5      13.5376
    9.32008e-5      13.2016
    9.32116e-5      12.9234
    9.32225e-5      12.6992
    9.32388e-5      12.4563
    9.32551e-5      12.3163
    9.32714e-5      12.2693
    9.32877e-5      12.3065
    9.33033e-5      12.4138
    9.33238e-5      12.6474
    9.33463e-5      13.0091
    9.33708e-5      13.5038
    9.33984e-5      14.1495
    9.34649e-5      15.8221
    9.34956e-5      16.5108
     9.3516e-5      16.8958
    9.35365e-5      17.2021
    9.35569e-5      17.4154
    9.35774e-5      17.5243
    9.35873e-5      17.5368
      9.361e-5      17.4625
    9.36275e-5      17.3058
    9.36489e-5      16.9956
    9.36694e-5      16.5842
    9.36898e-5      16.0674
    9.37103e-5      15.4559
    9.37307e-5      14.7631
    9.37614e-5      13.6041
    9.37921e-5      12.3503
    9.38583e-5      9.57483
    9.38836e-5      8.56549
    9.39066e-5      7.69932
    9.39296e-5      6.89275
    9.39449e-5      6.39164
    9.39603e-5      5.92134
    9.39756e-5      5.48248
     9.3991e-5      5.07519
     9.4005e-5      4.72927
    9.40178e-5      4.43709
    9.40306e-5      4.16552
    9.40434e-5      3.91385
    9.40561e-5      3.68123
    9.40689e-5      3.46673
    9.40817e-5      3.26938
    9.40945e-5      3.08815
    9.41073e-5      2.92199
      9.412e-5      2.76987
    9.41328e-5      2.63073
    9.41456e-5      2.50357
    9.41584e-5       2.3874
    9.41712e-5      2.28129
    9.41903e-5      2.13905
    9.42031e-5       2.0543
    9.42204e-5      1.95111
    9.42376e-5       1.8593
    9.42549e-5      1.77734
    9.42721e-5      1.70389
     9.4298e-5      1.60715
    9.43239e-5      1.52364
    9.43498e-5      1.45071
    9.43757e-5      1.38628
    9.44102e-5      1.31083
    9.44447e-5      1.24474
    9.44792e-5      1.18598
    9.45175e-5      1.12749
    9.45559e-5      1.07481
     9.4607e-5      1.01185
    9.46581e-5     0.955694
    9.47093e-5     0.905136
    9.47604e-5     0.859294
    9.48115e-5     0.817488
    9.48626e-5     0.779185
    9.49233e-5     0.737652
    9.49936e-5       0.6942
    9.50639e-5     0.655027
    9.51342e-5     0.619547
    9.52045e-5     0.587277
    9.52748e-5     0.557818
    9.53451e-5     0.530834
    9.54506e-5     0.494385
    9.55462e-5     0.464935
    9.56418e-5     0.438417
    9.57374e-5     0.414449
     9.5833e-5     0.392714
    9.59286e-5     0.372944
    9.60242e-5     0.354913
    9.61198e-5     0.338426
    9.62154e-5     0.323319
    9.63352e-5     0.306128
    9.64549e-5     0.290633
    9.65747e-5     0.276627
    9.66944e-5     0.263936
    9.68141e-5     0.252414
    9.69937e-5     0.237057
    9.71733e-5      0.22371
    9.73628e-5     0.211515
    9.75522e-5     0.201019
    9.77354e-5     0.192319
    9.79059e-5     0.185439
    9.80195e-5      0.18157
    9.81332e-5     0.178535
    9.82052e-5     0.177359
    9.82532e-5     0.177114
    9.83012e-5     0.177499
    9.83555e-5     0.178963
     9.8401e-5     0.181259
    9.84464e-5     0.184703
    9.84944e-5     0.189665
    9.85424e-5     0.195899
    9.86748e-5     0.215995
    9.87152e-5     0.221207
    9.87551e-5     0.225016
    9.87906e-5     0.226939
    9.88171e-5      0.22735
      9.885e-5     0.226574
    9.88862e-5     0.224116
     9.8918e-5     0.220675
    9.89605e-5     0.214569
    9.90243e-5      0.20336
    9.90997e-5     0.189485
    9.91501e-5     0.181155
     9.9188e-5     0.175776
    9.92272e-5      0.17109
     9.9267e-5     0.167237
    9.93068e-5     0.164229
    9.93599e-5     0.161327
     9.9413e-5     0.159411
    9.94768e-5     0.158026
     9.9583e-5     0.157054
    9.96428e-5     0.156944
    9.97623e-5     0.157304
    9.99415e-5     0.158939
   0.000100061     0.160701
   0.000100207     0.163622
   0.000100353     0.167478
   0.000100499     0.172409
   0.000100625     0.177737
   0.000100645     0.178604
   0.000100742     0.183545
    0.00010084     0.189255
   0.000100937     0.195856
   0.000101034     0.203501
   0.000101131     0.212387
   0.000101228     0.222766
   0.000101301     0.231725
   0.000101374     0.241882
   0.000101454     0.254766
   0.000101518     0.266469
   0.000101582      0.27973
   0.000101646     0.294847
   0.000101694     0.307625
   0.000101742     0.321855
    0.00010179     0.337779
   0.000101838     0.355699
   0.000101886     0.375992
   0.000101934      0.39914
   0.000101967     0.417421
   0.000102001     0.437688
   0.000102035     0.460284
   0.000102068      0.48564
   0.000102102     0.514316
   0.000102127     0.538436
   0.000102152     0.565228
   0.000102178     0.595195
   0.000102203     0.628974
   0.000102224     0.660089
   0.000102244     0.694874
   0.000102265      0.73403
   0.000102286      0.77841
   0.000102306     0.829071
    0.00010232     0.866961
   0.000102334     0.908662
   0.000102348     0.954689
   0.000102362      1.00563
   0.000102375      1.06214
   0.000102389      1.12498
   0.000102403      1.19498
   0.000102417       1.2731
   0.000102428       1.3459
   0.000102442      1.44428
   0.000102457      1.55468
   0.000102471       1.6786
    0.00010248      1.76953
    0.00010249      1.86773
   0.000102499      1.97373
   0.000102508      2.08813
   0.000102518      2.21152
   0.000102527      2.34455
   0.000102537      2.48783
   0.000102546      2.64208
   0.000102555      2.80796
   0.000102565       2.9862
   0.000102578      3.24914
   0.000102588      3.47492
   0.000102598      3.71775
   0.000102608      3.97849
   0.000102618      4.25804
   0.000102628      4.55721
   0.000102642      4.98814
   0.000102655      5.45722
   0.000102669      5.96611
   0.000102682      6.51612
   0.000102693      6.98654
   0.000102709      7.74357
   0.000102725      8.56267
   0.000102741      9.44357
   0.000102757      10.3845
   0.000102776      11.5546
   0.000102792      12.6146
   0.000102817        14.29
   0.000102843      16.2037
   0.000102906      20.8863
   0.000102938      23.1591
    0.00010296      24.5496
   0.000102981      25.8006
   0.000103003        26.88
   0.000103024      27.7591
   0.000103041      28.2724
   0.000103056      28.6303
   0.000103076      28.9204
   0.000103091      28.9861
   0.000103107      28.9181
   0.000103126      28.6618
   0.000103145      28.1968
   0.000103163      27.5898
   0.000103182      26.8115
   0.000103202      25.7806
   0.000103224      24.4881
   0.000103247      22.9822
   0.000103278      20.8504
   0.000103354      15.2688
   0.000103379       13.491
   0.000103399      12.1408
   0.000103418      10.9611
   0.000103435      9.94229
   0.000103452      8.99021
   0.000103465      8.32138
   0.000103478      7.69194
    0.00010349      7.11295
   0.000103503      6.57152
   0.000103516      6.06694
   0.000103528      5.59838
   0.000103541      5.16462
   0.000103554      4.76442
   0.000103566      4.39628
   0.000103579      4.05865
   0.000103591      3.74979
   0.000103604      3.46808
   0.000103617      3.21174
   0.000103629      2.97907
   0.000103642      2.76832
   0.000103655      2.57785
   0.000103667      2.40603
    0.00010368      2.25133
   0.000103693      2.11223
   0.000103705      1.98739
   0.000103718      1.87547
    0.00010373      1.77528
   0.000103743      1.68566
   0.000103756       1.6056
   0.000103768      1.53412
   0.000103781      1.47037
   0.000103795      1.40623
    0.00010381      1.35001
   0.000103824      1.30079
   0.000103838      1.25775
   0.000103853      1.22016
   0.000103874      1.17265
   0.000103896      1.13423
   0.000103917      1.10343
   0.000103939       1.0791
   0.000103953      1.06601
   0.000103982      1.04633
   0.000104011      1.03421
   0.000104042      1.02844
   0.000104053      1.02806
   0.000104088      1.03227
   0.000104119      1.04241
    0.00010415      1.05837
   0.000104181      1.08011
   0.000104212      1.10777
   0.000104243      1.14166
   0.000104276      1.18484
   0.000104302      1.22486
   0.000104328      1.27061
   0.000104354      1.32277
    0.00010438      1.38219
   0.000104406      1.44997
   0.000104432      1.52753
   0.000104458      1.61668
   0.000104476      1.68367
   0.000104493      1.75771
    0.00010451       1.8398
   0.000104528      1.93118
   0.000104548      2.05273
   0.000104566      2.17186
   0.000104583      2.30648
   0.000104601      2.45926
   0.000104613      2.57272
   0.000104624       2.6967
   0.000104636      2.83239
   0.000104648      2.98112
    0.00010466      3.14433
   0.000104671      3.32364
   0.000104683      3.52084
   0.000104695      3.73787
   0.000104707      3.97687
   0.000104718      4.24015
   0.000104728      4.48278
    0.00010474      4.80703
   0.000104752      5.16524
   0.000104764      5.56076
   0.000104776      5.99723
   0.000104789      6.47841
   0.000104801      7.00852
   0.000104813      7.59162
   0.000104825      8.23222
   0.000104837      8.93479
   0.000104849      9.70409
    0.00010486      10.4477
    0.00010487      11.1991
    0.00010488      12.0055
    0.00010489      12.8701
     0.0001049       13.795
   0.000104913      15.1267
   0.000104927      16.5759
    0.00010494      18.1476
   0.000104954      19.8459
   0.000104966      21.4856
   0.000104982      23.8383
   0.000104998      26.3831
   0.000105014      29.1182
    0.00010503      32.0395
   0.000105046      35.1381
   0.000105062      38.4027
   0.000105087      43.5727
   0.000105117      50.4839
   0.000105184      65.9366
   0.000105214       72.527
    0.00010524      77.6776
   0.000105262      81.6586
   0.000105283      84.7396
   0.000105301      87.0148
   0.000105317      88.6073
   0.000105333      89.7852
   0.000105349      90.5123
   0.000105368      90.8362
   0.000105389      90.4578
   0.000105409      89.3873
   0.000105426      87.9195
   0.000105444      86.0115
   0.000105463      83.3579
   0.000105486      79.6579
    0.00010551      74.9789
   0.000105538      69.0876
   0.000105577      60.3209
    0.00010563      48.0489
   0.000105656      42.2267
   0.000105678      37.6221
   0.000105695      34.0727
   0.000105714      30.5468
   0.000105728      28.0639
   0.000105742      25.7242
   0.000105756      23.5304
   0.000105772      21.2953
   0.000105784      19.6673
   0.000105796      18.1439
   0.000105808      16.7227
    0.00010582      15.4005
   0.000105832      14.1741
   0.000105844      13.0393
   0.000105856      11.9921
   0.000105867       11.183
   0.000105879      10.2846
   0.000105891      9.46069
   0.000105903      8.70674
   0.000105915        8.018
   0.000105927      7.38998
   0.000105939      6.81798
   0.000105951      6.29788
   0.000105963      5.82542
   0.000105975      5.39669
   0.000105987      5.00786
   0.000105996      4.74577
   0.000106006      4.48043
   0.000106016      4.23528
   0.000106025      4.00878
   0.000106035      3.79948
   0.000106045      3.60603
   0.000106059      3.34286
   0.000106074      3.10861
   0.000106088      2.89984
   0.000106103       2.7134
   0.000106117      2.54659
   0.000106132      2.39696
   0.000106146       2.2624
   0.000106165      2.11104
   0.000106183      1.97758
   0.000106201      1.85931
    0.00010622        1.754
   0.000106238      1.65977
   0.000106256       1.5751
   0.000106275      1.49869
   0.000106293      1.42951
   0.000106318      1.34701
   0.000106342      1.27417
   0.000106369      1.20459
   0.000106395      1.14369
   0.000106422      1.09054
   0.000106448      1.04446
   0.000106475      1.00494
   0.000106501     0.971593
   0.000106528     0.944092
   0.000106555     0.922154
   0.000106581     0.905416
   0.000106608     0.893669
   0.000106626     0.888414
   0.000106661     0.883442
    0.00010667     0.883229
   0.000106711     0.886439
   0.000106818     0.909291
   0.000106861      0.91389
   0.000106866     0.913962
   0.000106894     0.911982
   0.000106923     0.905295
   0.000106943     0.897448
   0.000106973     0.880929
      0.000107     0.860777
   0.000107029     0.833916
   0.000107058      0.80284
   0.000107088     0.765285
   0.000107129     0.710358
   0.000107217     0.587147
   0.000107251      0.54129
    0.00010728     0.506076
   0.000107308     0.473524
   0.000107336     0.443884
   0.000107365     0.417265
   0.000107393     0.393639
   0.000107421     0.372886
   0.000107449     0.354813
   0.000107478     0.339189
   0.000107506     0.325769
   0.000107534      0.31431
   0.000107566     0.303398
   0.000107598     0.294454
   0.000107631     0.287257
   0.000107663     0.281645
   0.000107695     0.277507
   0.000107727     0.274765
   0.000107759      0.27336
    0.00010778     0.273137
   0.000107812     0.273814
   0.000107855     0.276427
   0.000107912     0.282239
    0.00010801     0.294288
    0.00010805     0.298002
   0.000108091     0.299891
   0.000108101     0.300006
   0.000108131     0.299374
    0.00010816     0.297303
   0.000108195     0.292848
   0.000108232     0.285942
   0.000108273     0.276094
   0.000108313     0.264422
   0.000108434     0.225681
   0.000108484     0.210842
   0.000108521     0.200918
   0.000108559     0.192182
   0.000108584      0.18703
   0.000108621     0.180418
   0.000108657     0.174824
   0.000108694      0.17012
   0.000108749     0.164422
   0.000108804     0.159956
   0.000108877     0.155295
    0.00010895     0.151575
    0.00010906     0.147045
    0.00010917     0.143322
   0.000109306     0.139524
   0.000109443     0.136497
   0.000109579      0.13422
   0.000109715     0.132868
   0.000109761     0.132729
   0.000109829     0.133005
   0.000109897     0.134181
   0.000109949     0.136006
    0.00010999     0.138259
   0.000110031     0.141416
   0.000110062     0.144481
   0.000110093     0.148213
   0.000110124     0.152655
   0.000110155     0.157816
   0.000110196     0.165762
   0.000110237     0.174731
   0.000110335     0.197625
   0.000110377     0.206693
   0.000110409     0.212456
   0.000110441      0.21699
    0.00011047     0.219814
   0.000110491     0.221077
   0.000110514     0.221545
   0.000110542     0.220912
   0.000110568     0.219132
     0.0001106     0.215549
   0.000110632     0.210606
   0.000110675     0.202387
   0.000110802     0.173925
   0.000110841     0.165889
    0.00011088     0.158855
    0.00011092     0.152963
   0.000110959     0.148237
   0.000110996     0.144788
   0.000111034      0.14221
   0.000111084     0.139866
   0.000111135     0.138585
   0.000111203     0.138036
   0.000111271     0.138353
   0.000111372     0.139787
   0.000111508     0.142754
   0.000111632     0.146241
   0.000111802      0.15209
   0.000111916      0.15671
    0.00011203     0.161964
   0.000112143     0.167917
   0.000112257     0.174655
    0.00011237     0.182279
   0.000112484     0.190914
   0.000112616     0.202484
   0.000112705     0.211226
   0.000112793     0.220918
   0.000112881     0.231696
    0.00011297     0.243738
   0.000113058     0.257281
   0.000113147      0.27265
   0.000113224     0.287991
   0.000113291     0.302851
   0.000113358      0.31944
   0.000113425     0.337904
   0.000113486     0.356506
   0.000113555     0.379146
   0.000113635     0.408637
   0.000113711     0.439129
   0.000113781     0.470136
   0.000113842     0.500055
   0.000113904     0.534689
   0.000113955     0.566201
   0.000114006     0.601434
   0.000114059     0.643254
   0.000114098     0.677488
   0.000114138     0.715194
   0.000114177     0.756831
   0.000114216     0.802941
   0.000114255     0.854172
   0.000114294     0.911313
   0.000114333     0.975341
   0.000114368       1.0387
   0.000114398      1.09978
   0.000114428      1.16731
   0.000114458      1.24238
   0.000114488      1.32633
   0.000114511      1.39614
   0.000114534       1.4728
   0.000114556      1.55743
   0.000114579      1.65137
     0.0001146      1.74913
   0.000114618      1.84235
   0.000114636      1.94525
   0.000114655       2.0594
   0.000114673      2.18665
   0.000114691      2.32921
   0.000114709      2.48973
   0.000114727      2.67131
   0.000114739      2.80585
   0.000114752      2.95264
   0.000114764      3.11304
   0.000114776      3.28862
   0.000114788      3.48104
   0.000114802      3.72402
   0.000114816      3.99457
    0.00011483      4.29616
   0.000114843      4.63257
   0.000114857      5.00804
   0.000114871       5.4271
    0.00011488      5.73315
    0.00011489      6.06237
   0.000114899      6.41637
   0.000114908      6.79696
   0.000114917      7.20587
   0.000114927      7.64503
   0.000114939      8.29952
    0.00011495      8.87813
    0.00011496      9.50281
    0.00011497      10.1764
    0.00011498       10.902
   0.000114991      11.6825
   0.000115001      12.5212
   0.000115011      13.4209
   0.000115021      14.3847
   0.000115032      15.4154
   0.000115045       16.899
   0.000115058      18.3459
    0.00011507      19.9029
   0.000115082      21.5738
   0.000115095      23.3618
   0.000115107      25.2699
   0.000115119      27.2995
   0.000115132      29.4518
   0.000115149      32.6444
   0.000115163      35.5063
   0.000115182      39.5697
   0.000115202      43.8996
   0.000115221        48.47
    0.00011525      55.9124
   0.000115305      70.3912
    0.00011534      79.5766
    0.00011537      86.8817
   0.000115396       92.787
    0.00011542       97.538
   0.000115435      100.165
   0.000115457      103.308
   0.000115479      105.662
     0.0001155      107.111
   0.000115516       107.69
   0.000115527      107.794
   0.000115545      107.488
   0.000115563       106.57
   0.000115576      105.577
   0.000115598      103.188
   0.000115617      100.365
   0.000115639      96.5555
   0.000115663      91.6565
    0.00011569      85.6297
   0.000115722      77.3886
     0.0001158      56.9385
    0.00011583      49.3222
   0.000115855      43.4478
   0.000115874      39.1532
   0.000115893      35.1264
   0.000115907       32.292
   0.000115922       29.622
   0.000115934      27.4652
   0.000115946      25.4308
   0.000115959      23.5174
   0.000115971      21.7237
   0.000115983      20.0467
   0.000115996      18.4834
   0.000116008        17.03
    0.00011602      15.6825
   0.000116032      14.5359
   0.000116043      13.4706
   0.000116054      12.4827
   0.000116066      11.5681
   0.000116077      10.7229
   0.000116088      9.94296
   0.000116099      9.22432
   0.000116111      8.56317
   0.000116122      7.95546
   0.000116133      7.39767
   0.000116146      6.84175
   0.000116155      6.44453
   0.000116165      6.07591
   0.000116174      5.73396
   0.000116184      5.41684
   0.000116194       5.1228
   0.000116203      4.85021
   0.000116213      4.59751
   0.000116227      4.25254
   0.000116241      3.94441
   0.000116256        3.669
    0.00011627      3.42251
   0.000116285      3.20163
     0.0001163      2.98772
   0.000116312      2.83906
   0.000116324       2.7027
   0.000116342      2.51858
    0.00011636      2.35571
   0.000116378      2.21102
   0.000116396      2.08186
   0.000116414      1.96601
   0.000116432       1.8616
    0.00011645      1.76706
   0.000116462      1.70885
   0.000116486      1.60249
   0.000116509      1.51089
   0.000116532       1.4284
   0.000116555      1.35367
   0.000116578      1.28564
   0.000116609      1.20385
    0.00011664      1.13072
   0.000116671      1.06495
   0.000116702      1.00549
   0.000116732      0.95149
   0.000116763     0.902248
   0.000116794     0.857191
   0.000116835     0.802792
   0.000116876      0.75402
   0.000116917     0.710092
   0.000116958     0.670369
   0.000116999     0.634314
    0.00011704     0.601479
   0.000117088     0.566734
   0.000117143     0.531109
   0.000117198     0.499244
   0.000117253     0.470622
   0.000117308     0.444814
   0.000117362     0.421463
   0.000117417     0.400266
   0.000117472     0.380969
   0.000117532     0.361586
   0.000117599     0.342415
   0.000117665     0.325132
   0.000117731     0.309501
   0.000117798     0.295326
   0.000117864     0.282438
   0.000117963     0.265208
   0.000118057     0.250946
    0.00011814     0.239766
    0.00011825     0.226583
    0.00011836     0.215094
   0.000118471     0.205062
   0.000118581     0.196301
   0.000118691     0.188686
   0.000118801     0.182186
   0.000118884     0.178131
   0.000118957     0.175307
   0.000119024     0.173509
   0.000119092     0.172757
    0.00011916     0.173277
   0.000119228     0.175164
   0.000119283     0.177628
    0.00011943     0.185339
   0.000119494      0.18741
   0.000119536     0.187778
   0.000119581     0.187121
   0.000119625     0.185356
   0.000119668     0.182738
   0.000119732     0.177485
   0.000119859     0.165339
   0.000119911     0.160836
   0.000119964     0.157102
   0.000120016     0.154283
   0.000120062     0.152614
    0.00012012     0.151584
   0.000120143     0.151498
     0.0001202     0.152093
   0.000120257     0.153806
   0.000120314     0.156588
   0.000120371     0.160304
    0.00012053     0.172722
    0.00012059     0.176511
    0.00012063     0.178213
   0.000120676     0.179215
   0.000120696     0.179313
   0.000120726     0.178899
   0.000120752     0.178539
   0.000120813     0.176218
   0.000120983     0.166676
   0.000121053     0.163789
   0.000121105     0.162482
   0.000121166     0.161929
   0.000121226     0.162337
     0.0001213     0.163912
   0.000121379     0.166609
   0.000121457     0.170158
   0.000121535     0.174472
   0.000121614     0.179559
   0.000121692     0.185503
    0.00012177      0.19245
   0.000121848     0.200604
   0.000121917     0.208924
   0.000121975     0.217111
   0.000122033     0.226507
   0.000122092     0.237373
   0.000122136     0.246694
   0.000122179     0.257229
   0.000122223     0.269228
   0.000122267     0.283019
   0.000122311     0.299052
    0.00012234     0.311287
    0.00012237      0.32578
   0.000122402     0.343179
   0.000122427     0.358055
   0.000122451     0.374843
   0.000122475     0.393944
   0.000122499     0.415858
   0.000122523     0.441219
   0.000122539     0.460422
   0.000122555     0.481783
   0.000122571     0.505628
   0.000122587     0.532327
   0.000122603     0.562308
   0.000122617     0.591793
   0.000122629     0.619894
   0.000122642     0.650718
   0.000122654     0.684558
   0.000122666     0.721733
   0.000122678     0.762591
    0.00012269     0.807508
   0.000122703     0.856889
   0.000122715     0.911174
   0.000122727     0.970829
   0.000122739      1.03635
   0.000122751      1.10826
   0.000122764      1.18713
   0.000122776      1.27352
   0.000122788      1.36806
     0.0001228      1.47135
    0.00012281      1.56561
   0.000122823      1.69008
   0.000122835      1.82578
   0.000122848      1.97339
    0.00012286      2.13365
   0.000122873      2.30723
   0.000122885      2.49485
   0.000122898      2.69709
   0.000122911      2.91456
   0.000122923      3.14776
   0.000122936      3.39716
   0.000122951      3.73399
   0.000122969      4.13602
   0.000122986      4.57049
   0.000123003      5.03719
   0.000123021      5.53514
   0.000123041      6.16373
   0.000123059      6.74512
   0.000123086      7.66412
   0.000123126      9.08391
   0.000123185      11.2507
   0.000123218      12.3735
   0.000123246      13.2326
    0.00012327      13.9028
   0.000123291      14.3793
   0.000123309      14.7355
   0.000123328      15.0167
   0.000123346      15.2178
   0.000123363      15.3287
   0.000123381      15.3678
   0.000123401      15.3179
    0.00012342      15.1755
   0.000123439      14.9506
   0.000123457      14.6495
   0.000123476      14.2749
   0.000123497      13.7537
   0.000123521      13.0925
   0.000123548      12.2526
   0.000123578      11.1955
   0.000123666      8.01731
   0.000123691      7.14948
   0.000123717      6.30583
   0.000123734      5.76854
   0.000123752      5.26009
   0.000123769       4.7823
   0.000123786      4.33626
     0.0001238      4.01165
   0.000123815      3.66461
   0.000123831      3.34288
   0.000123846      3.04594
   0.000123858      2.83907
   0.000123869      2.64535
   0.000123881      2.46435
   0.000123892      2.29561
   0.000123904      2.13862
   0.000123915      1.99288
   0.000123927      1.85778
   0.000123938      1.73281
    0.00012395      1.61741
   0.000123962      1.51101
   0.000123973      1.41305
   0.000123985      1.32301
   0.000123996      1.24033
   0.000124008      1.16451
   0.000124019      1.09504
   0.000124031      1.03146
   0.000124042     0.973311
   0.000124054     0.920165
   0.000124066     0.871606
   0.000124077     0.827264
   0.000124089     0.786773
   0.000124104     0.737732
   0.000124116     0.703718
   0.000124132      0.66307
   0.000124148     0.627181
   0.000124164     0.595452
    0.00012418     0.567347
   0.000124196     0.542401
   0.000124212     0.520203
   0.000124229     0.500398
   0.000124253     0.474506
   0.000124277     0.452432
   0.000124301     0.433472
   0.000124325     0.417066
   0.000124349     0.402768
   0.000124373     0.390221
   0.000124405     0.375736
   0.000124437      0.36335
   0.000124469     0.352672
   0.000124517     0.339235
   0.000124566     0.328269
   0.000124614      0.31927
   0.000124662     0.311871
    0.00012471     0.305801
   0.000124774     0.299418
   0.000124838     0.294657
   0.000124915     0.290698
   0.000125005     0.288062
    0.00012511     0.287187
    0.00012517     0.287589
    0.00012529     0.290081
    0.00012541     0.294549
    0.00012553     0.300772
    0.00012565     0.308622
    0.00012577     0.318036
    0.00012589     0.329012
    0.00012601     0.341585
   0.000126134     0.356352
   0.000126258      0.37302
   0.000126382     0.391748
   0.000126506     0.412737
    0.00012663     0.436237
   0.000126755     0.462551
   0.000126879     0.492052
   0.000127003     0.525197
   0.000127097     0.553166
   0.000127191     0.583858
   0.000127286     0.617613
    0.00012738      0.65483
   0.000127469     0.693705
   0.000127559     0.736574
   0.000127658     0.789565
   0.000127749     0.844051
   0.000127829     0.896571
    0.00012791     0.956095
   0.000127976      1.00875
   0.000128039      1.06416
   0.000128102      1.12458
   0.000128166      1.19063
   0.000128229      1.26304
   0.000128292      1.34266
    0.00012834      1.40814
   0.000128393      1.48741
   0.000128447      1.57393
     0.0001285      1.66863
   0.000128554      1.77259
   0.000128607      1.88708
    0.00012866      2.01361
   0.000128714      2.15398
    0.00012876      2.28888
   0.000128799      2.41419
   0.000128839      2.55066
   0.000128878       2.6997
   0.000128918      2.86298
   0.000128957      3.04247
   0.000128996      3.24053
   0.000129036      3.45998
   0.000129071      3.67547
   0.000129101      3.88198
   0.000129132        4.108
   0.000129162      4.35636
   0.000129193      4.63053
   0.000129223      4.93478
   0.000129254      5.27445
   0.000129277      5.55645
     0.0001293      5.86566
   0.000129326        6.264
   0.000129346      6.59552
   0.000129366      6.95979
   0.000129386      7.36198
   0.000129406      7.80816
   0.000129426      8.30577
   0.000129446      8.86348
   0.000129466      9.49182
   0.000129479        9.956
   0.000129492      10.4613
   0.000129506      11.0125
   0.000129523      11.8064
   0.000129539      12.6276
   0.000129555      13.5455
   0.000129571      14.5738
   0.000129587      15.7271
   0.000129597      16.5737
   0.000129608      17.4889
   0.000129618      18.4784
   0.000129629      19.5483
    0.00012964      20.7053
    0.00012965      21.9565
   0.000129661      23.3091
   0.000129672       24.771
   0.000129682      26.3504
   0.000129697      28.6847
   0.000129711      31.2709
   0.000129725      34.1326
    0.00012974       37.294
   0.000129754      40.7804
   0.000129764      43.4423
   0.000129775      46.4419
   0.000129785      49.6543
   0.000129796      53.0899
   0.000129807      56.7592
   0.000129817      60.6724
   0.000129828      64.8389
   0.000129838      69.2679
   0.000129854      76.4227
    0.00012987      84.2139
   0.000129886      92.6618
   0.000129902      101.784
   0.000129918      111.588
   0.000129934      121.895
   0.000129949      132.473
   0.000129965      144.736
   0.000129985      159.807
   0.000130007      178.542
   0.000130031      199.131
   0.000130061      226.843
   0.000130135      297.047
   0.000130166      324.368
   0.000130195      348.293
   0.000130217      363.884
   0.000130238      377.569
   0.000130259      388.717
   0.000130278       397.06
   0.000130298      403.572
   0.000130319      407.693
   0.000130341      409.063
   0.000130361      407.655
   0.000130381      403.775
   0.000130401      397.494
    0.00013042      389.278
   0.000130442       377.84
   0.000130466      362.243
   0.000130493      341.993
   0.000130523      316.906
   0.000130557      285.903
   0.000130634      212.996
   0.000130662      187.863
   0.000130681      171.866
   0.000130706      151.865
   0.000130724      138.181
   0.000130742      125.321
    0.00013076      113.316
   0.000130778      102.179
    0.00013079      95.2372
   0.000130803      88.0897
   0.000130817      80.8439
   0.000130831      74.1136
   0.000130846      67.8824
    0.00013086      62.1307
   0.000130874      56.8375
   0.000130888      51.9798
   0.000130899      48.6078
    0.00013091      45.4572
   0.000130923      41.8127
   0.000130936      38.4767
    0.00013095       35.428
   0.000130963      32.6468
   0.000130976      30.1129
    0.00013099      27.8076
   0.000131003      25.7124
   0.000131016      23.8103
    0.00013103      22.0841
   0.000131043       20.519
   0.000131057      19.0102
   0.000131068       17.978
   0.000131079      17.0237
   0.000131089      16.1413
     0.0001311      15.3252
   0.000131116      14.2138
   0.000131132      13.2236
   0.000131148      12.3399
   0.000131164        11.55
    0.00013118      10.8425
   0.000131196      10.2074
   0.000131212      9.63585
   0.000131228      9.11283
   0.000131245      8.62711
   0.000131262      8.18858
   0.000131278      7.79161
   0.000131301      7.31869
   0.000131323      6.90154
   0.000131345      6.53239
   0.000131368        6.205
    0.00013139      5.91429
   0.000131414      5.63939
   0.000131439      5.38309
   0.000131465      5.16046
    0.00013149      4.96824
   0.000131516      4.80363
   0.000131541      4.66415
   0.000131566      4.54749
   0.000131592      4.45136
    0.00013162      4.36655
    0.00013165      4.29533
   0.000131696      4.22049
   0.000131828      4.07756
   0.000131869       4.0122
   0.000131903      3.93784
   0.000131939      3.83668
   0.000131978      3.69541
   0.000132015      3.53994
   0.000132056      3.34227
   0.000132096      3.12492
   0.000132207      2.49986
   0.000132241      2.31658
   0.000132275      2.14409
   0.000132309      1.98364
   0.000132344      1.83799
   0.000132378      1.70766
   0.000132401      1.62916
   0.000132435      1.52345
   0.000132469      1.43112
   0.000132504      1.35074
   0.000132538      1.28077
   0.000132572      1.21968
   0.000132607      1.16603
   0.000132641      1.11855
   0.000132682      1.06796
   0.000132724      1.02315
   0.000132779     0.970335
   0.000132834     0.923572
   0.000132889     0.881478
   0.000132972     0.825185
   0.000133054     0.775491
   0.000133124     0.737941
   0.000133208     0.696953
   0.000133296     0.658012
   0.000133397     0.617737
   0.000133511      0.57653
   0.000133631     0.536615
   0.000133751     0.500973
   0.000133862     0.470981
   0.000133974     0.444214
   0.000134077     0.422126
   0.000134208     0.396941
   0.000134339     0.374611
    0.00013447     0.354885
   0.000134575     0.341052
   0.000134693     0.327749
    0.00013481     0.316772
   0.000135099     0.293578
   0.000135233     0.280856
   0.000135428     0.260978
   0.000135521     0.252512
   0.000135614     0.245119
   0.000135753     0.235852
   0.000135903     0.227652
   0.000136006     0.222726
   0.000136213     0.214235
   0.000136419     0.207372
   0.000136574     0.203318
   0.000136726     0.200498
   0.000136827     0.199733
   0.000136903     0.200263
   0.000136954     0.201486
   0.000137004     0.203727
   0.000137048     0.206798
   0.000137086     0.210464
   0.000137124     0.215262
   0.000137162     0.221342
     0.0001372     0.228812
   0.000137238     0.237714
   0.000137276     0.247994
   0.000137314     0.259485
   0.000137385     0.283297
   0.000137458     0.307423
   0.000137498     0.319152
   0.000137539     0.328682
   0.000137568     0.333821
   0.000137595     0.337063
   0.000137629     0.338846
   0.000137636     0.338898
   0.000137672      0.33743
   0.000137699      0.33444
   0.000137729     0.329556
   0.000137749     0.325277
   0.000137789     0.314846
    0.00013783     0.302549
   0.000137955      0.26097
   0.000137992     0.249925
   0.000138029     0.239994
   0.000138065     0.231341
   0.000138102     0.224025
   0.000138139     0.218024
   0.000138175     0.213249
   0.000138212     0.209575
   0.000138258     0.206287
   0.000138304     0.204209
   0.000138373     0.202776
   0.000138396     0.202635
   0.000138488     0.203209
   0.000138581     0.204991
   0.000138719     0.209029
   0.000138857     0.214292
   0.000139012     0.221541
   0.000139138     0.228516
   0.000139263     0.236575
   0.000139389     0.245845
   0.000139514     0.256494
    0.00013964      0.26875
   0.000139734     0.279199
   0.000139828     0.290998
   0.000139923      0.30459
   0.000140002     0.318003
   0.000140074     0.332323
   0.000140122     0.343338
    0.00014017     0.355757
   0.000140218     0.369745
   0.000140266     0.385395
   0.000140338       0.4119
   0.000140429     0.449427
    0.00014056     0.505264
   0.000140634     0.533885
    0.00014071     0.559255
   0.000140909     0.617836
   0.000140965     0.637052
   0.000141021     0.659698
   0.000141076     0.686675
   0.000141132     0.718646
   0.000141188     0.756099
    0.00014123     0.787591
   0.000141275     0.826142
   0.000141321     0.869087
   0.000141366     0.916784
   0.000141411     0.969702
   0.000141457      1.02844
   0.000141502      1.09375
   0.000141548       1.1666
    0.00014159       1.2412
   0.000141628      1.31662
   0.000141666       1.4002
   0.000141704      1.49326
   0.000141742      1.59748
   0.000141771      1.68423
   0.000141799      1.77956
   0.000141828      1.88484
   0.000141856      2.00179
   0.000141875      2.08727
   0.000141902      2.22067
   0.000141929      2.37066
    0.00014195      2.49603
    0.00014197      2.63433
    0.00014199      2.78764
   0.000142011      2.95842
   0.000142031       3.1496
   0.000142051      3.36463
   0.000142071      3.60766
   0.000142085      3.78759
   0.000142103      4.05182
    0.00014212      4.32862
   0.000142136      4.63825
   0.000142153      4.98533
    0.00014217      5.37494
   0.000142181      5.66112
   0.000142192      5.97065
   0.000142204      6.30546
   0.000142215      6.66772
   0.000142226      7.05964
   0.000142237      7.48371
   0.000142248      7.94239
    0.00014226      8.43842
   0.000142271      8.97455
   0.000142283      9.62951
   0.000142296      10.3433
   0.000142309      11.1207
   0.000142321      11.9664
   0.000142334      12.8853
   0.000142346      13.8824
   0.000142359      14.9628
   0.000142371      16.1316
   0.000142384      17.3942
   0.000142397      18.7553
   0.000142405      19.7199
    0.00014242      21.5532
   0.000142435      23.5443
    0.00014245      25.7003
   0.000142465      28.0273
    0.00014248      30.5312
   0.000142495      33.2155
   0.000142509      36.0836
   0.000142524      39.1362
   0.000142541      42.7598
   0.000142558      46.6089
    0.00014258      52.0803
   0.000142602      57.9148
   0.000142631       65.861
   0.000142665       76.114
   0.000142748      101.511
   0.000142784      111.913
   0.000142813      119.675
   0.000142838      125.575
   0.000142853      128.792
    0.00014288      133.805
   0.000142893      135.794
     0.0001429      136.844
   0.000142921      139.287
   0.000142946      141.222
   0.000142965      141.956
   0.000142974      142.057
   0.000142997      141.682
   0.000143018      140.513
   0.000143038      138.709
   0.000143059      136.269
   0.000143081      132.872
   0.000143109      127.652
    0.00014313      123.247
   0.000143159      116.517
   0.000143188      109.247
   0.000143298      79.9986
   0.000143333        71.27
    0.00014336      64.7846
   0.000143384      59.2248
   0.000143412      53.1148
   0.000143435      48.5472
    0.00014346      43.8938
   0.000143481      40.2767
   0.000143501      36.8924
   0.000143522      33.7346
   0.000143543       30.796
   0.000143559      28.5804
   0.000143576      26.4972
   0.000143593      24.5414
   0.000143609      22.7082
   0.000143627      20.8963
   0.000143645      19.2104
   0.000143662      17.6443
    0.00014368      16.1925
   0.000143698      14.8491
   0.000143715      13.6184
   0.000143733      12.4881
    0.00014375      11.4479
   0.000143765      10.6123
    0.00014378      9.83765
   0.000143795      9.12049
   0.000143811      8.45768
   0.000143826        7.846
   0.000143841      7.28242
   0.000143856      6.76389
   0.000143871      6.28754
   0.000143887      5.83648
   0.000143903      5.42436
   0.000143919      5.02741
   0.000143935      4.68418
    0.00014395      4.38558
   0.000143965      4.11711
   0.000143979      3.87149
   0.000143994      3.64317
    0.00014401      3.43299
   0.000144025      3.24119
    0.00014404      3.06604
   0.000144055      2.90604
   0.000144065      2.80708
   0.000144085      2.62586
   0.000144106      2.46454
   0.000144129      2.30114
   0.000144152      2.15709
   0.000144177      2.02116
   0.000144195      1.92937
   0.000144223      1.80622
   0.000144251       1.6978
   0.000144279      1.60161
   0.000144307      1.51563
   0.000144335      1.43822
   0.000144354      1.39073
   0.000144391      1.30418
   0.000144428      1.22719
   0.000144465      1.15817
   0.000144501      1.09918
   0.000144536       1.0454
   0.000144583     0.980654
    0.00014463     0.922782
   0.000144676     0.870844
   0.000144723     0.824119
    0.00014477     0.782051
   0.000144817     0.744219
   0.000144862     0.711825
   0.000144904     0.684151
   0.000144947     0.659374
   0.000144989     0.637369
   0.000145032     0.618004
   0.000145096     0.593515
   0.000145159     0.573731
   0.000145219     0.558437
   0.000145385     0.520745
   0.000145457     0.501366
   0.000145525     0.480186
    0.00014561     0.449758
   0.000145747     0.397902
   0.000145818      0.37308
   0.000145879     0.354142
    0.00014594     0.337668
   0.000146001     0.323588
   0.000146062     0.311628
   0.000146123     0.301428
   0.000146184     0.292631
   0.000146276     0.281417
   0.000146371     0.271663
   0.000146435     0.265868
   0.000146563     0.255865
   0.000146691     0.247672
    0.00014682     0.241072
   0.000146951     0.235813
   0.000147083     0.231989
   0.000147217     0.229504
   0.000147368      0.22838
   0.000147382     0.228366
   0.000147503     0.228888
   0.000147614     0.230417
   0.000147733     0.233237
   0.000147852     0.237402
   0.000147942     0.241575
   0.000148043     0.247516
   0.000148143     0.255178
   0.000148219     0.262349
   0.000148294     0.270957
    0.00014837     0.281175
   0.000148446     0.292855
   0.000148588     0.317506
    0.00014887     0.368366
   0.000148943     0.382577
   0.000149011     0.397846
   0.000149068     0.412128
   0.000149124     0.428371
   0.000149181     0.446886
   0.000149238     0.467952
   0.000149298     0.493828
   0.000149345     0.516005
   0.000149391     0.540515
   0.000149438     0.567601
   0.000149484     0.597562
   0.000149531      0.63077
   0.000149577     0.667679
   0.000149624     0.708856
   0.000149667     0.751832
   0.000149708     0.796346
   0.000149748     0.845974
   0.000149788     0.901637
   0.000149819     0.948049
   0.000149849     0.999151
   0.000149879      1.05573
    0.00014991      1.11879
    0.00014994      1.18959
    0.00014997      1.26975
   0.000149991      1.33176
   0.000150012       1.4001
   0.000150033       1.4758
   0.000150054       1.5601
   0.000150075      1.65447
   0.000150096      1.76067
   0.000150112      1.84932
   0.000150128      1.94681
   0.000150144      2.05839
   0.000150161      2.19128
   0.000150179      2.34013
   0.000150195      2.49192
    0.00015021      2.65242
   0.000150225      2.83034
    0.00015024       3.0278
   0.000150255      3.24703
    0.00015027      3.49051
   0.000150286      3.76094
   0.000150301      4.06124
   0.000150314      4.34229
   0.000150325      4.62105
   0.000150337      4.92291
    0.00015035      5.26944
   0.000150359      5.56367
   0.000150375      6.05784
   0.000150389      6.59358
   0.000150404      7.17754
   0.000150419      7.81796
   0.000150434       8.5379
   0.000150449      9.32591
   0.000150464      10.1865
    0.00015048      11.1239
   0.000150495      12.1423
    0.00015051      13.2457
   0.000150525      14.4377
    0.00015054      15.7217
   0.000150556      17.1246
   0.000150571      18.6282
   0.000150586      20.2347
   0.000150602      21.9452
   0.000150618      23.8335
   0.000150639      26.5267
   0.000150661      29.4183
   0.000150682      32.5022
   0.000150705      36.0096
   0.000150731      40.2851
   0.000150764      46.0068
   0.000150799      52.2587
   0.000150845      61.0177
   0.000151114      114.092
     0.0001512      131.592
   0.000151241      140.356
   0.000151315      156.228
   0.000151347      163.102
   0.000151353       164.52
   0.000151353      31.0269
   0.000153489      30.7517
   0.000155654      30.4725
   0.000156752       30.331
    0.00015785      30.1894
   0.000160077      29.9023
   0.000162336      29.6112
   0.000164626      29.3159
   0.000166948      29.0165
   0.000169304      28.7129
   0.000171692       28.405
   0.000174115      28.0927
   0.000176571      27.7761
   0.000179062      27.4549
   0.000181588      27.1292
    0.00018415       26.799
   0.000186748      26.4641
   0.000189383      26.1244
   0.000192055        25.78
   0.000194764      25.4307
   0.000197512      25.0765
        0.0002      24.7557
   0.000202822      24.6002
   0.000205683      24.4425
   0.000208585      24.2826
   0.000211528      24.1204
   0.000214512       23.956
   0.000217538      23.7892
   0.000220607        23.62
    0.00022372      23.4485
   0.000226876      23.2746
   0.000230077      23.0982
   0.000233323      22.9193
   0.000236615      22.7378
   0.000239953      22.5539
   0.000243338      22.3673
   0.000246771      22.1781
   0.000250253      21.9862
   0.000253783      21.7916
   0.000257364      21.5943
   0.000260995      21.3942
   0.000264677      21.1913
   0.000268411      20.9855
   0.000272198      20.7768
   0.000276038      20.5651
   0.000279932      20.3505
   0.000283882      20.1329
   0.000287887      19.9121
   0.000291948      19.6883
   0.000296067      19.4613
        0.0003      19.2446
   0.000304232      19.1476
   0.000308525      19.0493
   0.000312877      18.9496
   0.000317292      18.8486
   0.000321768       18.746
   0.000326307      18.6421
   0.000330911      18.5367
    0.00033558      18.4297
   0.000340314      18.3213
   0.000345115      18.2114
   0.000349984      18.0999
   0.000354922      17.9868
   0.000359929      17.8721
   0.000365007      17.7558
   0.000370157      17.6379
   0.000375379      17.5183
   0.000380675       17.397
   0.000386046       17.274
   0.000391492      17.1493
   0.000397015      17.0228
   0.000402616      16.8945
   0.000408297      16.7645
   0.000414057      16.6326
   0.000419899      16.4988
   0.000425823      16.3631
    0.00043183      16.2255
   0.000437922       16.086
   0.000444101      15.9445
   0.000450366       15.801
    0.00045672      15.6555
   0.000463164       15.508
   0.000469698      15.3583
   0.000476325      15.2066
   0.000483045      15.0527
    0.00048986      14.8966
   0.000496771      14.7383
   0.000503779      14.5778
   0.000510886      14.4151
   0.000518094        14.25
   0.000525404      14.0826
   0.000532816      13.9129
   0.000540333      13.7407
   0.000547956      13.5661
   0.000555687      13.3891
   0.000563527      13.2096
   0.000571477      13.0275
    0.00057954      12.8429
   0.000587716      12.6556
   0.000596007      12.4657
        0.0006      12.3743
   0.000608465      12.3001
   0.000617049      12.2248
   0.000625755      12.1485
   0.000634583      12.0711
   0.000643536      11.9927
   0.000652615      11.9131
   0.000661822      11.8324
   0.000671159      11.7505
   0.000680628      11.6675
   0.000690231      11.5833
   0.000699968       11.498
   0.000709844      11.4114
   0.000719858      11.3236
   0.000730014      11.2346
   0.000740313      11.1443
   0.000750758      11.0527
    0.00076135      10.9599
   0.000772091      10.8657
   0.000782984      10.7702
    0.00079403      10.6734
   0.000805233      10.5752
   0.000816593      10.4756
   0.000828114      10.3746
   0.000839797      10.2722
   0.000851645      10.1684
    0.00086366       10.063
   0.000875845      9.95621
   0.000887337      9.85547
   0.000888201      9.84789
   0.000900732      9.73805
    0.00091344      9.62665
   0.000926327      9.51368
   0.000939396      9.39912
   0.000952649      9.28294
   0.000966089      9.16512
   0.000979719      9.04564
   0.000993541      8.92448
         0.001      8.86786
    0.00101411      8.82192
    0.00102842      8.77534
    0.00104292       8.7281
    0.00105764      8.68019
    0.00107256      8.63161
    0.00108769      8.58234
    0.00110304      8.53237
     0.0011186       8.4817
    0.00113438      8.43032
    0.00115038      8.37821
    0.00116661      8.32537
    0.00118307      8.27178
    0.00119976      8.21743
    0.00121669      8.16232
    0.00123386      8.10643
    0.00125126      8.04975
    0.00126892      7.99227
    0.00128682      7.93398
    0.00130497      7.87487
    0.00132338      7.81493
    0.00134205      7.75414
    0.00136099      7.69249
    0.00138019      7.62997
    0.00139966      7.56657
    0.00141941      7.50228
    0.00143943      7.43707
    0.00145974      7.37095
    0.00148034       7.3039
    0.00150122       7.2359
     0.0015224      7.16694
    0.00154388        7.097
    0.00156566      7.02609
    0.00158775      6.95417
    0.00161015      6.88123
    0.00163287      6.80727
     0.0016559      6.73226
    0.00167926      6.65619
    0.00170296      6.57906
    0.00172698      6.50083
    0.00175135       6.4215
    0.00177605      6.34105
    0.00180111      6.25947
    0.00182652      6.17673
    0.00185229      6.09283
    0.00187842      6.00774
    0.00190492      5.92145
     0.0019318      5.83395
    0.00195905      5.74521
    0.00198669      5.65522
         0.002      5.61189
    0.00202822      5.57491
    0.00205683      5.53741
    0.00208585      5.49938
    0.00211528      5.46082
    0.00214512      5.42171
    0.00217538      5.38205
    0.00220607      5.34183
     0.0022372      5.30104
    0.00226876      5.25968
    0.00230077      5.21773
    0.00233323       5.1752
    0.00236615      5.13206
    0.00239953      5.08831
    0.00243338      5.04395
    0.00246771      4.99896
    0.00250253      4.95333
    0.00253783      4.90707
    0.00257364      4.86015
    0.00260995      4.81256
    0.00264677      4.76431
    0.00268411      4.71537
    0.00272198      4.66575
    0.00276038      4.61542
    0.00279932      4.56439
    0.00283882      4.51263
    0.00287887      4.46015
    0.00291948      4.40692
    0.00296067      4.35294
         0.003       4.3014
    0.00304232      4.27994
    0.00308525      4.25817
    0.00312877      4.23609
    0.00317291      4.21371
    0.00321768      4.19101
    0.00326307      4.16798
    0.00330911      4.14463
     0.0033558      4.12096
    0.00340314      4.09695
    0.00345115       4.0726
    0.00349984       4.0479
    0.00354922      4.02286
    0.00359929      3.99746
    0.00365007      3.97171
    0.00370157      3.94559
    0.00375379      3.91911
    0.00380675      3.89225
    0.00386046      3.86501
    0.00391492      3.83739
    0.00397015      3.80938
    0.00402616      3.78097
    0.00408297      3.75216
    0.00414057      3.72295
    0.00419898      3.69332
    0.00425823      3.66328
     0.0043183      3.63281
    0.00437922      3.60191
    0.00444101      3.57057
    0.00450366       3.5388
     0.0045672      3.50657
    0.00463164      3.47389
    0.00469698      3.44075
    0.00476325      3.40715
    0.00483045      3.37306
     0.0048986       3.3385
    0.00496771      3.30345
    0.00503779      3.26791
    0.00510887      3.23186
    0.00518094       3.1953
    0.00525404      3.15823
    0.00532816      3.12064
    0.00540333      3.08252
    0.00547956      3.04385
    0.00555687      3.00465
    0.00563527      2.96489
    0.00571477      2.92456
     0.0057954      2.88367
    0.00587716      2.84221
    0.00596007      2.80015
         0.006      2.77991
    0.00608465      2.76501
    0.00617049      2.74991
    0.00625755       2.7346
    0.00634583      2.71907
    0.00643536      2.70332
    0.00652615      2.68734
    0.00661822      2.67115
    0.00671159      2.65472
    0.00680628      2.63806
    0.00690231      2.62117
    0.00699968      2.60404
    0.00709844      2.58667
    0.00719858      2.56905
    0.00730014      2.55118
    0.00740313      2.53306
    0.00750758      2.51469
     0.0076135      2.49605
    0.00772091      2.47716
    0.00782984        2.458
     0.0079403      2.43856
    0.00805233      2.41885
    0.00816593      2.39887
    0.00828114       2.3786
    0.00839797      2.35805
    0.00851645      2.33721
     0.0086366      2.31607
    0.00875845      2.29463
    0.00888202      2.27289
    0.00900732      2.25085
     0.0091344      2.22849
    0.00926327      2.20582
    0.00939396      2.18283
    0.00952649      2.15952
    0.00966089      2.13587
    0.00979719      2.11189
    0.00993541      2.08758
          0.01      2.07622
     0.0101411      2.06785
     0.0102842      2.05936
     0.0104292      2.05076
     0.0105764      2.04203
     0.0107256      2.03318
     0.0108769       2.0242
     0.0110304       2.0151
      0.011186      2.00587
     0.0113438      1.99651
     0.0115038      1.98702
     0.0116661      1.97739
     0.0118307      1.96763
     0.0119976      1.95773
     0.0121669      1.94769
     0.0123386      1.93751
     0.0125126      1.92718
     0.0126892      1.91671
     0.0128682      1.90609
     0.0130497      1.89532
     0.0132338       1.8844
     0.0134205      1.87333
     0.0136099       1.8621
     0.0138019      1.85071
     0.0139966      1.83916
     0.0141941      1.82745
     0.0143943      1.81557
     0.0145974      1.80352
     0.0148034      1.79131
     0.0150122      1.77892
      0.015224      1.76636
     0.0154388      1.75362
     0.0156566       1.7407
     0.0158775       1.7276
     0.0161015      1.71431
     0.0163287      1.70084
      0.016559      1.68717
     0.0167926      1.67331
     0.0170295      1.65926
     0.0172698      1.64501
     0.0175135      1.63056
     0.0177605       1.6159
     0.0180111      1.60104
     0.0182652      1.58597
     0.0185229      1.57069
     0.0187842      1.55519
     0.0190492      1.53947
      0.019318      1.52353
     0.0195905      1.50736
     0.0198669      1.49097
          0.02      1.48307
     0.0202822      1.47663
     0.0205683       1.4701
     0.0208585      1.46348
     0.0211528      1.45677
     0.0214512      1.44996
     0.0217538      1.44305
     0.0220607      1.43605
      0.022372      1.42895
     0.0226876      1.42174
     0.0230077      1.41444
     0.0233323      1.40703
     0.0236615      1.39952
     0.0239953      1.39191
     0.0243338      1.38418
     0.0246771      1.37635
     0.0250253       1.3684
     0.0253783      1.36035
     0.0257364      1.35218
     0.0260995      1.34389
     0.0264677      1.33549
     0.0268411      1.32697
     0.0272198      1.31833
     0.0276038      1.30956
     0.0279932      1.30068
     0.0283882      1.29166
     0.0287887      1.28253
     0.0291948      1.27326
     0.0296067      1.26386
          0.03      1.25488
     0.0304232      1.25081
     0.0306379      1.24875
     0.0308525      1.24668
     0.0312877      1.24249
     0.0317292      1.23825
     0.0321768      1.23394
     0.0326307      1.22957
     0.0330911      1.22514
      0.033558      1.22065
     0.0340314      1.21609
     0.0345115      1.21148
     0.0349984      1.20679
     0.0354922      1.20204
     0.0359929      1.19722
     0.0365007      1.19234
     0.0370157      1.18738
     0.0375379      1.18236
     0.0380675      1.17726
     0.0386046      1.17209
     0.0391492      1.16685
     0.0397015      1.16154
     0.0402616      1.15615
     0.0408297      1.15068
     0.0414057      1.14514
     0.0419899      1.13952
     0.0425823      1.13382
      0.043183      1.12804
     0.0437922      1.12218
     0.0444101      1.11623
     0.0450366       1.1102
      0.045672      1.10409
     0.0463164      1.09789
     0.0469698       1.0916
     0.0476325      1.08523
     0.0483045      1.07876
      0.048986       1.0722
     0.0496771      1.06555
     0.0503779      1.05881
     0.0510887      1.05197
     0.0518094      1.04504
     0.0525404        1.038
     0.0532816      1.03087
     0.0540333      1.02364
     0.0547956       1.0163
     0.0555687      1.00886
     0.0563527      1.00132
     0.0571477     0.993671
      0.057954     0.985913
     0.0587716     0.978046
     0.0596007     0.970068
          0.06     0.966226
     0.0608465     0.962738
     0.0617049       0.9592
     0.0625755     0.955612
     0.0634583     0.951974
     0.0643536     0.948285
     0.0652615     0.944543
     0.0657219     0.942646
     0.0661822     0.940749
     0.0671159     0.936901
     0.0680628     0.932999
     0.0690231     0.929042
     0.0699968     0.925028
     0.0709844     0.920959
     0.0719858     0.916832
     0.0730014     0.912646
     0.0740314     0.908402
     0.0750758     0.904098
      0.076135     0.899733
     0.0772091     0.895306
     0.0782984     0.890817
      0.079403     0.886265
     0.0805233     0.881649
     0.0816593     0.876967
     0.0828114     0.872219
     0.0839797     0.867405
     0.0851645     0.862522
      0.086366      0.85757
     0.0875845     0.852549
     0.0888202     0.847457
     0.0900732     0.842293
      0.091344     0.837056
     0.0926327     0.831745
     0.0939396     0.826359
     0.0952649     0.820898
     0.0966089     0.815359
     0.0979719     0.809742
     0.0993541     0.804046
           0.1     0.801384
      0.100705     0.799446
      0.110672     0.772065
      0.110672     0.772048
      0.112693     0.766497
           0.2     0.839479
       0.25465     0.838585
      0.267715     0.839118
      0.298279     0.857864
           0.3     0.862635
      0.302116     0.862307
      0.313058     0.862108
      0.338078     0.861664
           0.4     0.926996
      0.414268     0.931408
      0.474914      0.95016
      0.487626     0.982824
           0.5      1.02195
      0.501003      1.02167
      0.530621      1.03143
      0.544492      1.05123
      0.598887      1.19219
           0.6      1.19688
      0.601589      1.19889
      0.612698      1.21177
      0.699969      1.32468
           0.7      1.32472
      0.714111      1.32204
      0.716923      1.32312
      0.724936      1.33093
        0.7428      1.34835
      0.747407      1.35285
      0.768476      1.37743
      0.771843      1.38278
           0.8      1.44355
      0.803063      1.44622
      0.844102      1.48246
      0.877651      1.51245
      0.894123      1.52717
      0.896522      1.52942
           0.9      1.53463
      0.900725      1.53492
      0.903266      1.53563
      0.912697      1.53989
      0.927278      1.54669
      0.940292      1.55281
      0.953881      1.56229
             1      1.61954
       1.00705      1.62465
       1.08145      1.67961
           1.2      1.76718
           1.4      1.87654
       1.40988      1.88023
           1.6      1.95134
       1.61129      1.95413
       1.65874      1.96588
           1.8      2.00085
             2      2.03496
       2.01411      2.03677
           2.2       2.0617
           2.4      2.08761
       2.41693      2.09002
           2.6      2.11669
       2.61834      2.11967
       2.79613      2.14927
           2.8      2.14992
       2.81975      2.15352
             3      2.18677
       3.02116      2.19088
       3.06379      2.19908
           3.2      2.22532
       3.20031      2.22538
       3.24515      2.23357
           3.4      2.26188
           3.6      2.29379
       3.62539      2.29702
       3.75453      2.31342
           3.8      2.31919
             4      2.33688
           4.2      2.34643
       4.22963      2.34671
       4.25925      2.34699
           4.4      2.34833
       4.43104      2.34756
           4.6      2.34341
        4.6649         2.34
           4.8      2.33284
       4.83386      2.33028
       4.92052      2.32373
       4.93155      2.32289
             5      2.31772
       5.10631      2.30705
           5.2      2.29765
       5.23668      2.29417
       5.31056      2.28712
       5.32642      2.28561
           5.4      2.27858
       5.43809      2.27436
           5.6      2.25641
        5.6395      2.25222
           5.8      2.23519
       5.88183      2.22676
             6      2.21458
       6.04232      2.21037
       6.17761      2.19692
           6.2       2.1947
       6.31552      2.18399
           6.4      2.17615
           6.6      2.15821
           6.8      2.14485
             7      2.13263
       7.17409      2.12296
           7.2      2.12152
           7.4      2.11395
           7.6      2.10738
       7.66468      2.10321
           7.8       2.1028
             8      2.09961
       8.05643      2.09914
       8.38883      2.09643
           8.5      2.09552
       8.55806      2.09536
       8.65791      2.09508
             9      2.09412
           9.5      2.09235
            10       2.0888
       10.1411      2.08721
       10.2842      2.08561
       10.4292      2.08397
       10.4584      2.08365
          10.5      2.08318
       10.6481      2.08082
       10.7984      2.07842
       10.9507      2.07599
            11      2.07521
       11.1052      2.07324
       11.1356      2.07268
       11.1552      2.07231
       11.2619      2.07032
       11.3126      2.06938
       11.4208      2.06736
       11.4722       2.0664
          11.5      2.06588
        11.634      2.06298
       11.6622      2.06237
       11.7982      2.05943
       11.8268      2.05881
       11.9055       2.0571
       11.9646      2.05582
       11.9936       2.0552
            12      2.05506
       12.1693      2.05128
        12.341      2.04744
       12.4854      2.04421
          12.5      2.04389
       12.6764      2.04001
       12.7009      2.03947
       12.8552      2.03608
            13       2.0329
       13.1834      2.02901
       13.3694      2.02506
          13.5      2.02229
        13.558      2.02118
       13.6905      2.01865
       13.7493      2.01753
       13.8836      2.01497
       13.9433      2.01383
            14      2.01275
       14.1975      2.00948
       14.3978      2.00616
          14.5      2.00447
       14.7046      2.00165
       14.7279      2.00133
        14.912      1.99879
            15      1.99758
       15.2116      1.99546
       15.4262       1.9933
       15.6439      1.99112
       15.8646       1.9889
            16      1.98754
       16.1924      1.98643
       16.2257      1.98624
       16.4546      1.98492
       16.6868      1.98358
       16.9222      1.98222
            17      1.98177
       17.2398      1.98107
       17.4831      1.98035
       17.7297      1.97962
       17.9799      1.97888
            18      1.97882
       18.2334      1.97622
       18.2539      1.97624
       18.5115      1.97641
       18.7298      1.97656
       18.7726      1.97659
            19      1.97674
       19.0375      1.97658
       19.2681      1.97558
       19.3061      1.97541
       19.5399       1.9744
       19.5784      1.97423
       19.8156      1.97321
       19.8547      1.97304
            20      1.97241
       20.2822      1.97023
       20.5683      1.96801
       20.8585      1.96577
            21      1.96468
       21.2963      1.96111
       21.5967       1.9575
       21.9014      1.95383
            22      1.95264
       22.3104      1.94792
       22.5002      1.94504
       22.6251      1.94314
       22.9443      1.93828
            23      1.93743
        23.268      1.93295
       23.3245        1.932
       23.5963      1.92745
       23.6536      1.92649
       23.9292      1.92188
       23.9873       1.9209
            24      1.92069
       24.3257      1.91557
       24.3386      1.91537
       24.6689      1.91017
        24.682      1.90997
       24.7427      1.90901
            25      1.90497
       25.3527       1.8999
       25.7104      1.89477
            26      1.89061
       26.2628      1.88737
       26.3668      1.88611
       26.7388      1.88162
            27      1.87846
        27.116       1.8772
       27.3809      1.87434
       27.4986      1.87306
       27.7672      1.87015
       27.8866      1.86886
            28      1.86763
        28.159        1.866
        28.395      1.86357
       28.5562      1.86191
       28.7956      1.85945
       28.9591      1.85777
            29      1.85735
       29.4091      1.85303
        29.824      1.84866
            30      1.84681
            30       1.8429
       30.4232      1.83777
       30.8525      1.83256
       31.2877      1.82728
       31.7292      1.82193
       32.1768       1.8165
       32.6307        1.811
       33.0911      1.80541
        33.558      1.79975
       34.0314      1.79401
       34.5115      1.78819
       34.9984      1.78228
       35.4922      1.77629
       35.9929      1.77022
       36.5007      1.76406
       37.0157      1.75782
       37.5379      1.75148
            38      1.74588
       38.0675      1.74517
       38.6046      1.73955
       39.1492      1.73385
       39.7015      1.72806
       40.2616       1.7222
       40.8297      1.71625
       41.4057      1.71022
       41.9898       1.7041
       42.5823       1.6979
        43.183      1.69161
       43.7922      1.68523
       44.4101      1.67876
       45.0366       1.6722
        45.672      1.66554
            46      1.66211
       46.3164      1.65919
       46.9698      1.65317
       47.6325      1.64706
       48.3045      1.64086
        48.986      1.63457
       49.6771       1.6282
       50.3779      1.62174
       51.0887      1.61518
       51.8094      1.60854
            52      1.60678
       52.5404      1.60251
       53.2816      1.59665
       54.0333      1.59071
       54.7956      1.58469
       55.5687      1.57858
       56.3527      1.57239
       57.1477      1.56611
        57.954      1.55974
       58.7716      1.55328
       59.6007      1.54672
            60      1.54357
       60.4416      1.54054
       61.2943      1.53468
       62.1591      1.52874
        63.036      1.52271
       63.9254       1.5166
       64.8272      1.51041
            65      1.50922
       65.7418      1.50464
       66.6693      1.49891
       67.6099       1.4931
       68.5638       1.4872
       69.5311      1.48123
            70      1.47833
        70.512      1.47561
       71.5068      1.47033
       72.5157      1.46498
       73.5387      1.45955
       74.5762      1.45405
       75.6284      1.44847
       76.6953       1.4428
       77.7774      1.43706
       78.8747      1.43124
       79.9875      1.42534
            80      1.42527
       81.1159      1.42039
       82.2603      1.41539
       83.4209      1.41031
       84.5978      1.40517
       85.7913      1.39995
       87.0017      1.39466
       88.2291      1.38929
       89.4739      1.38385
            90      1.38155
       90.7362      1.37886
       92.0163      1.37418
       93.3145      1.36943
        94.631      1.36461
       95.9661      1.35973
         97.32      1.35478
        98.693      1.34976
           100      1.34498
       100.085      1.34472
       101.497      1.34034
       102.929       1.3359
       104.381      1.33139
       105.854      1.32683
       107.348       1.3222
       108.862       1.3175
           110      1.31397
       110.398      1.31291
       111.955      1.30876
       113.535      1.30455
       115.137      1.30028
       116.761      1.29595
       118.408      1.29155
           120      1.28731
       120.079      1.28713
       121.773      1.28319
       123.491       1.2792
       125.233      1.27515
           127      1.27105
       128.792      1.26689
           130      1.26408
       130.609       1.2629
       132.451      1.25933
        134.32      1.25571
       136.215      1.25203
       138.137      1.24831
       140.086      1.24453
       142.062       1.2407
       144.066      1.23681
       146.099      1.23287
        148.16      1.22888
           150      1.22531
        150.25       1.2249
        152.37      1.22141
        154.52      1.21787
         156.7      1.21428
        158.91      1.21063
           160      1.20884
       161.152      1.20718
       163.426      1.20391
       165.732       1.2006
        168.07      1.19724
       170.441      1.19383
       172.845      1.19037
       175.284      1.18686
       177.757      1.18331
           180      1.18008
       180.265      1.17975
       182.808      1.17662
       185.387      1.17345
       188.003      1.17023
       190.655      1.16696
       193.345      1.16365
       196.073      1.16029
       198.839      1.15689
           200      1.15546
//
#-------------------------------------------------------------------------------
