#ZVView-data-copy:  31-Jul-2018 04:59:27
#=======================================
#
#name:   TENDL-2017: XE-125(N,G)XE-126
#X.axis: Incident Energy
#Y.axis: Cross Section
#wdata:  2
#ldata:  5353
#data...
#            X            Y
#          MeV        barns
         1e-11      2112.84
   1.10304e-11      2011.74
   1.21669e-11      1915.49
   1.34206e-11      1823.84
   1.48034e-11      1736.58
   1.63287e-11      1653.49
   1.80111e-11      1574.39
   1.98669e-11      1499.06
   2.19139e-11      1427.34
   2.41719e-11      1359.06
   2.66625e-11      1294.04
   2.94097e-11      1232.13
     3.244e-11      1173.19
   3.57825e-11      1117.07
   3.94694e-11      1063.63
   4.35362e-11      1012.75
   4.80221e-11      964.312
   5.29701e-11      918.189
    5.8428e-11      874.273
   6.44483e-11      832.461
   7.10888e-11       792.65
   7.84136e-11      754.745
   8.64931e-11      718.655
   9.54051e-11      684.293
   1.05235e-10      651.577
   1.16078e-10      620.428
   1.28039e-10      590.771
   1.41231e-10      562.535
   1.55784e-10      535.651
   1.71835e-10      510.055
    1.8954e-10      485.686
    2.0907e-10      462.485
   2.30612e-10      440.396
   2.54374e-10      419.367
   2.80584e-10      399.345
   3.09494e-10      380.284
   3.41383e-10      362.138
   3.76558e-10      344.862
   4.15358e-10      328.416
   4.58155e-10       312.76
   5.05362e-10      297.855
   5.57433e-10      283.667
   6.14869e-10      270.161
   6.78223e-10      257.305
   7.48105e-10      245.068
   8.25188e-10       233.42
   9.10213e-10      222.333
      1.004e-9      211.782
    1.10745e-9      201.739
    1.22155e-9      192.182
    1.34742e-9      183.087
    1.48625e-9      174.432
    1.63939e-9      166.197
    1.80831e-9      158.362
    1.99463e-9      150.908
    2.20016e-9      143.816
    2.42685e-9      137.071
    2.67691e-9      130.656
    2.95273e-9      124.555
    3.25697e-9      118.755
    3.59256e-9       113.24
    3.96272e-9      107.998
    4.37103e-9      103.017
    4.82141e-9      98.2837
    5.31819e-9      93.7885
    5.86616e-9      89.5205
    6.51624e-9      85.1873
      7.238e-9      81.0935
     8.0401e-9      77.2233
    8.93064e-9      73.5689
    9.92032e-9      70.1164
    1.10191e-8      66.8605
    1.22402e-8       63.791
     1.3596e-8      60.9041
    1.51027e-8      58.1882
    1.67755e-8      55.6372
    1.86345e-8      53.2422
    2.06986e-8      51.0017
    2.29923e-8      48.9108
    2.52419e-8      47.1776
       2.53e-8      47.1363
    2.81037e-8      45.3244
    3.12166e-8      43.6537
    3.49188e-8      42.0226
    3.90601e-8      40.5502
    4.36926e-8      39.2419
    4.88745e-8      38.0958
     5.4671e-8      37.1136
    6.11549e-8      36.3102
    6.84078e-8      35.7023
    7.65208e-8      35.3109
    8.50007e-8      35.1672
    8.58565e-8      35.1661
     9.5371e-8      35.3068
    1.05198e-7        35.72
    1.16037e-7       36.453
    1.26212e-7      37.4024
     1.3728e-7      38.7236
    1.47241e-7      40.1834
    1.56819e-7      41.8556
    1.67027e-7      43.9543
    1.76655e-7      46.2678
    1.85528e-7      48.7246
    1.93492e-7      51.2304
    2.01797e-7       54.191
    2.08995e-7      57.0835
     2.1644e-7       60.439
     2.2416e-7      64.3671
     2.3053e-7      68.0017
     2.3708e-7      72.1651
    2.43817e-7      76.9616
    2.48989e-7      81.0471
    2.54283e-7        85.64
    2.59676e-7      90.8002
    2.65198e-7       96.651
    2.70823e-7      103.285
    2.76581e-7      110.879
    2.80483e-7      116.548
     2.8444e-7      122.778
    2.88453e-7      129.642
    2.92523e-7      137.223
     2.9665e-7      145.615
    3.00835e-7      154.927
    3.05079e-7      165.284
    3.09383e-7      176.825
    3.13748e-7      189.707
    3.18175e-7      204.101
    3.22663e-7      220.191
    3.27216e-7      238.164
    3.31832e-7      258.199
    3.36514e-7      280.444
    3.41261e-7      304.981
    3.46076e-7      331.782
    3.50958e-7      360.645
    3.66023e-7       453.45
    3.71187e-7      482.625
    3.75105e-7      502.186
     3.7906e-7      518.814
    3.83071e-7      531.738
    3.85764e-7      537.869
    3.88476e-7      541.802
    3.91609e-7       543.42
    3.95112e-7       541.44
    3.97899e-7      537.039
    4.00687e-7       530.23
    4.03513e-7      521.018
    4.07773e-7      503.205
    4.12072e-7      481.216
    4.16432e-7       455.82
    4.23781e-7      408.867
    4.34308e-7      340.182
    4.38898e-7      311.812
    4.43531e-7      284.855
    4.48207e-7      259.611
     4.5295e-7      236.143
    4.56134e-7      221.594
     4.5934e-7      207.902
    4.62569e-7       195.05
    4.65821e-7      183.015
    4.69095e-7      171.766
    4.72393e-7      161.267
    4.75713e-7      151.477
    4.79057e-7      142.356
    4.82425e-7      133.863
    4.85816e-7      125.957
    4.89231e-7      118.597
     4.9267e-7      111.747
    4.96133e-7      105.368
    4.99621e-7      99.4274
    5.03133e-7      93.8918
    5.06669e-7      88.7314
    5.10231e-7      83.9179
    5.13818e-7      79.4253
    5.17429e-7      75.2293
    5.22885e-7       69.453
    5.28418e-7      64.2071
    5.34003e-7      59.4577
     5.3964e-7        55.15
     5.4533e-7      51.2358
      5.511e-7      47.6568
    5.56924e-7      44.3943
    5.62804e-7      41.4152
    5.68738e-7      38.6901
    5.74756e-7       36.182
     5.8083e-7      33.8811
    5.86962e-7      31.7669
    5.93151e-7      29.8211
    5.99427e-7      28.0196
    6.05762e-7      26.3572
    6.12157e-7      24.8209
    6.18611e-7      23.3992
    6.25157e-7      22.0757
    6.31764e-7      20.8482
    6.38433e-7      19.7081
    6.45165e-7      18.6479
    6.54267e-7      17.3434
    6.63498e-7      16.1541
    6.72858e-7      15.0679
    6.82351e-7       14.074
    6.91978e-7      13.1626
     7.0174e-7      12.3253
    7.11641e-7      11.5548
    7.21681e-7       10.845
    7.31862e-7      10.1903
    7.42188e-7       9.5856
    7.52659e-7      9.02642
    7.63277e-7      8.50866
    7.74046e-7      8.02867
    7.84966e-7      7.58317
    7.96041e-7       7.1692
    8.07271e-7      6.78412
     8.1866e-7      6.42552
     8.3021e-7      6.09124
    8.41923e-7      5.77932
    8.53801e-7      5.48798
    8.65847e-7      5.21562
    8.78062e-7      4.96076
    8.96731e-7      4.60803
    9.15752e-7       4.2886
    9.35223e-7      3.99769
    9.55061e-7      3.73339
    9.75367e-7      3.49119
    9.96056e-7      3.26993
    1.01723e-6      3.06673
    1.03881e-6      2.88067
     1.0609e-6      2.70946
     1.0834e-6       2.5527
    1.10644e-6      2.40817
    1.12991e-6      2.27507
    1.15393e-6      2.15172
    1.17841e-6      2.03791
    1.20346e-6      1.93233
    1.22899e-6      1.83473
    1.25512e-6      1.74399
    1.28174e-6      1.65993
    1.31816e-6      1.55684
    1.35562e-6      1.46315
    1.39414e-6      1.37785
    1.43376e-6      1.30007
     1.4745e-6      1.22902
     1.5164e-6      1.16405
    1.55949e-6      1.10474
     1.6038e-6      1.05036
    1.64937e-6      1.00017
     1.7082e-6     0.943021
    1.76905e-6     0.891576
    1.83215e-6     0.845079
    1.89741e-6     0.803132
    1.96509e-6     0.765168
    2.03509e-6      0.73091
    2.10768e-6     0.699935
    2.18275e-6     0.672055
    2.27645e-6     0.642301
    2.37416e-6     0.616619
    2.45885e-6     0.597614
    2.56439e-6     0.578004
    2.67447e-6       0.5618
    2.78927e-6     0.548895
      2.909e-6     0.540054
    3.01261e-6     0.535621
    3.09812e-6     0.534215
    3.20863e-6     0.536167
     3.2998e-6     0.540687
    3.39357e-6       0.5483
       3.49e-6      0.56019
    3.56403e-6     0.572397
    3.63981e-6     0.588101
    3.71701e-6     0.608009
    3.79604e-6     0.633265
     3.8496e-6     0.653714
    3.90391e-6     0.677696
    3.95899e-6     0.705907
    4.01484e-6     0.739233
    4.05722e-6     0.768226
        4.1e-6     0.801208
    4.14338e-6     0.839074
    4.18718e-6      0.88274
    4.23138e-6     0.933384
    4.27599e-6     0.992401
    4.30616e-6      1.03759
    4.33632e-6      1.08773
    4.36691e-6      1.14438
     4.3975e-6      1.20777
    4.42852e-6      1.28002
    4.45954e-6      1.36164
    4.48313e-6      1.43099
    4.50672e-6      1.50762
    4.53043e-6      1.59303
    4.55436e-6      1.68908
    4.57828e-6      1.79655
    4.60243e-6      1.91846
     4.6267e-6      2.05683
    4.64287e-6       2.1593
    4.65916e-6      2.27195
    4.67557e-6      2.39619
    4.69197e-6      2.53273
    4.70838e-6      2.68327
     4.7249e-6      2.85107
    4.74153e-6      3.03893
    4.75817e-6      3.24869
    4.77064e-6      3.42248
    4.78312e-6      3.61234
    4.79577e-6      3.82339
    4.80843e-6      4.05556
    4.82108e-6      4.31181
    4.83373e-6       4.5956
    4.84638e-6      4.91107
    4.85916e-6      5.26665
    4.87199e-6      5.66766
    4.88054e-6      5.96303
     4.8891e-6      6.28389
    4.89765e-6      6.63328
     4.9062e-6      7.01476
    4.91476e-6      7.43245
    4.92249e-6      7.84541
    4.92941e-6      8.24654
    4.93633e-6      8.68123
    4.94325e-6       9.1534
    4.95017e-6      9.66756
    4.95709e-6      10.2289
    4.96401e-6      10.8435
    4.97093e-6      11.5183
    4.97824e-6       12.306
    4.98402e-6        12.99
     4.9898e-6      13.7351
    4.99558e-6      14.5489
    5.00136e-6      15.4395
    5.00778e-6      16.5311
    5.01292e-6      17.4913
    5.01806e-6      18.5381
     5.0232e-6      19.6811
    5.02833e-6      20.9312
    5.03347e-6      22.3002
    5.03861e-6      23.8009
    5.04375e-6      25.4473
    5.04889e-6      27.2547
    5.05402e-6      29.2388
    5.05916e-6      31.4165
     5.0643e-6      33.8048
    5.06944e-6      36.4212
    5.07457e-6      39.2822
    5.07971e-6      42.4039
    5.08485e-6      45.8002
    5.08999e-6      49.4828
    5.09512e-6      53.4597
    5.10026e-6      57.7345
     5.1054e-6      62.3052
    5.11054e-6      67.1634
    5.11824e-6      74.9523
    5.12595e-6      83.2598
    5.13879e-6      97.8639
    5.15421e-6      115.438
    5.16191e-6      123.628
    5.16962e-6      131.027
    5.17681e-6      136.959
    5.18221e-6      140.656
    5.18657e-6      143.115
    5.19171e-6      145.344
    5.19662e-6      146.763
    5.20129e-6      147.445
    5.20363e-6      147.537
    5.20846e-6        147.2
    5.21432e-6      145.847
    5.21946e-6      143.836
    5.22485e-6      140.944
     5.2305e-6      137.125
    5.23795e-6      131.012
    5.24489e-6      124.411
    5.25182e-6      117.151
    5.26467e-6      102.692
    5.28008e-6      85.1023
    5.28779e-6      76.7214
    5.29549e-6       68.825
    5.30063e-6      63.8806
    5.30577e-6      59.2148
    5.31091e-6      54.8386
    5.31604e-6      50.7563
    5.32118e-6      46.9664
    5.32632e-6      43.4628
    5.33146e-6      40.2355
    5.33659e-6      37.2719
    5.34173e-6      34.5571
    5.34687e-6      32.0752
    5.35201e-6      29.8096
    5.35714e-6      27.7434
    5.36228e-6      25.8601
    5.36742e-6      24.1438
    5.37256e-6      22.5793
    5.37769e-6      21.1524
    5.38283e-6      19.8499
    5.38797e-6      18.6596
    5.39311e-6      17.5705
    5.39876e-6      16.4773
    5.40492e-6      15.3964
    5.41109e-6      14.4186
    5.41726e-6      13.5319
    5.42291e-6      12.7899
    5.43061e-6      11.8745
    5.43832e-6       11.056
    5.44603e-6      10.3215
    5.45373e-6      9.65976
    5.46144e-6      9.06156
    5.46914e-6      8.51894
    5.47685e-6      8.02519
    5.48456e-6      7.57456
    5.49226e-6      7.16211
    5.49997e-6      6.78361
    5.50768e-6      6.43539
    5.51538e-6      6.11427
    5.52309e-6      5.81748
    5.53283e-6      5.47346
    5.54257e-6      5.16024
    5.55231e-6      4.87423
    5.56205e-6      4.61234
    5.57179e-6      4.37193
    5.58153e-6      4.15069
    5.59614e-6       3.8505
    5.61089e-6      3.58094
     5.6257e-6      3.33915
    5.64052e-6      3.12242
    5.65534e-6      2.92739
    5.67015e-6      2.75125
    5.68504e-6      2.59093
    5.70007e-6      2.44396
    5.71509e-6      2.31014
    5.73012e-6      2.18793
    5.74013e-6      2.11225
    5.76017e-6      1.97326
    5.78048e-6      1.84715
     5.8008e-6      1.73394
    5.82112e-6      1.63191
    5.84143e-6      1.53965
    5.86203e-6      1.45485
    5.88264e-6      1.37781
    5.90324e-6      1.30762
    5.92384e-6      1.24349
    5.94474e-6      1.18394
    5.97608e-6      1.10365
    6.00742e-6      1.03267
     6.0392e-6       0.9688
    6.07098e-6     0.911912
    6.10292e-6     0.860805
    6.13515e-6     0.814527
    6.16738e-6     0.772873
    6.19991e-6      0.73491
     6.2217e-6     0.711517
    6.26528e-6      0.66903
    6.30948e-6     0.631037
    6.35368e-6     0.597421
     6.3985e-6      0.56714
    6.44332e-6     0.540098
    6.48877e-6     0.515494
    6.53422e-6      0.49337
    6.58031e-6     0.473153
    6.64978e-6     0.446294
    6.71989e-6     0.422879
      6.791e-6     0.402267
    6.86277e-6     0.384126
    6.93521e-6     0.368089
    7.00834e-6     0.353881
    7.10721e-6     0.337344
    7.20748e-6     0.322981
    7.30917e-6     0.310511
    7.41229e-6     0.299666
    7.51686e-6     0.290204
    7.62291e-6     0.281933
    7.78499e-6     0.271406
    7.95012e-6     0.262807
    8.11916e-6     0.255776
    8.29138e-6      0.25011
    8.46767e-6     0.245596
    8.70828e-6     0.241165
    8.95573e-6     0.238334
    9.21021e-6     0.236953
    9.35976e-6     0.236781
    9.62572e-6      0.23753
    9.89924e-6     0.239642
    1.01805e-5     0.243181
    1.04698e-5     0.248307
    1.06897e-5     0.253369
    1.08378e-5     0.257625
    1.09494e-5     0.261816
    1.10126e-5     0.265263
    1.10551e-5     0.268772
    1.10912e-5     0.273315
    1.11231e-5     0.279202
    1.11549e-5     0.287206
    1.12187e-5     0.306368
    1.12399e-5     0.311377
     1.1258e-5      0.31413
    1.12782e-5     0.315203
    1.12994e-5     0.314003
    1.13206e-5     0.310779
     1.1395e-5     0.294064
    1.14269e-5     0.288783
    1.14587e-5     0.285563
    1.14991e-5     0.283783
    1.15266e-5     0.283524
    1.15905e-5     0.284441
    1.17131e-5     0.288556
    1.19198e-5     0.297878
    1.21732e-5     0.311606
    1.24315e-5     0.328002
    1.26068e-5     0.340661
    1.27847e-5     0.354916
    1.29651e-5     0.371027
     1.3148e-5     0.389283
    1.33335e-5     0.410018
    1.35216e-5     0.433719
    1.37123e-5     0.461005
    1.38574e-5     0.484246
    1.40039e-5     0.510197
    1.41517e-5     0.539408
    1.43009e-5     0.572415
    1.44523e-5     0.610083
     1.4605e-5      0.65315
    1.47073e-5     0.685302
    1.48111e-5     0.721033
    1.49148e-5     0.760351
    1.50129e-5     0.801385
     1.5111e-5     0.846892
    1.52066e-5       0.8966
    1.52783e-5     0.938619
    1.53473e-5     0.985433
    1.53925e-5      1.02237
    1.54297e-5      1.05965
    1.54615e-5      1.09898
    1.54934e-5      1.14674
    1.55253e-5      1.20266
    1.55784e-5       1.3027
    1.56087e-5      1.35208
    1.56336e-5      1.38249
    1.56549e-5      1.39934
     1.5674e-5       1.4075
    1.56931e-5      1.41003
    1.57356e-5      1.40397
     1.5776e-5      1.39805
    1.58078e-5      1.40128
    1.58397e-5      1.41359
    1.58652e-5       1.4295
    1.59077e-5      1.46546
    1.59515e-5      1.51139
    1.59953e-5      1.56369
    1.60511e-5      1.63759
    1.61042e-5      1.71506
    1.61573e-5      1.79959
    1.62104e-5      1.89168
    1.62656e-5      1.99618
    1.63229e-5       2.1152
    1.63802e-5      2.24636
    1.64374e-5      2.39121
    1.64951e-5      2.55278
    1.65532e-5      2.73376
    1.65967e-5       2.8832
    1.66403e-5      3.04594
    1.66838e-5      3.22361
    1.67278e-5      3.42011
     1.6772e-5      3.63729
    1.68162e-5       3.8771
    1.68603e-5      4.14279
    1.69045e-5      4.43823
    1.69489e-5      4.76963
    1.69937e-5      5.14499
    1.70235e-5      5.42144
    1.70534e-5       5.7217
    1.70833e-5       6.0486
    1.71131e-5      6.40544
     1.7143e-5      6.79602
    1.71728e-5      7.22478
    1.71974e-5      7.61014
     1.7222e-5      8.02824
    1.72466e-5      8.48295
    1.72712e-5      8.97869
    1.72958e-5      9.52065
    1.73204e-5      10.1148
     1.7345e-5      10.7683
    1.73696e-5      11.4893
    1.73885e-5      12.0966
    1.74074e-5      12.7549
    1.74264e-5      13.4703
    1.74453e-5      14.2497
    1.74642e-5      15.1011
    1.74832e-5      16.0338
    1.75021e-5      17.0589
     1.7521e-5      18.1894
    1.75359e-5      19.1614
    1.75508e-5      20.2165
    1.75657e-5       21.365
    1.75805e-5      22.6186
    1.75954e-5      23.9909
    1.76103e-5       25.498
    1.76251e-5      27.1592
      1.764e-5      28.9971
    1.76522e-5      30.6512
    1.76644e-5      32.4597
    1.76765e-5      34.4435
    1.76887e-5      36.6276
    1.77009e-5      39.0419
     1.7713e-5      41.7221
    1.77252e-5      44.7118
    1.77343e-5      47.1887
    1.77421e-5      49.4792
    1.77516e-5      52.5208
     1.7761e-5      55.8781
    1.77705e-5      59.5979
      1.778e-5      63.7354
    1.77894e-5      68.3553
    1.77965e-5      72.1823
    1.78036e-5      76.3598
    1.78107e-5      80.9294
    1.78172e-5      85.4399
    1.78253e-5      91.7091
    1.78314e-5      96.8769
    1.78374e-5      102.488
    1.78435e-5      108.584
    1.78496e-5      115.212
    1.78557e-5      122.422
    1.78618e-5      130.265
    1.78679e-5      138.798
     1.7874e-5      148.079
    1.78802e-5      158.404
    1.78867e-5      170.153
    1.78932e-5      182.975
    1.78996e-5      196.951
    1.79061e-5      212.158
    1.79126e-5      228.675
    1.79199e-5      248.914
    1.79272e-5          271
    1.79348e-5      295.945
    1.79429e-5      325.062
     1.7951e-5      356.711
    1.79591e-5      390.911
    1.79673e-5      427.635
    1.79754e-5      466.802
    1.79862e-5      522.564
     1.7997e-5      581.874
    1.80132e-5      675.777
    1.80403e-5      836.162
    1.80511e-5      897.607
    1.80619e-5      955.138
    1.80727e-5      1007.13
    1.80835e-5      1052.02
    1.80927e-5      1083.55
    1.81019e-5      1108.18
    1.81101e-5      1123.73
    1.81182e-5      1133.15
    1.81266e-5      1136.26
     1.8136e-5      1131.63
    1.81436e-5      1121.78
    1.81522e-5      1104.05
    1.81598e-5      1083.18
    1.81679e-5      1055.71
    1.81765e-5      1021.18
    1.81851e-5      982.186
    1.81979e-5      917.072
    1.82138e-5      827.375
    1.82462e-5      636.129
      1.826e-5      557.989
    1.82706e-5      501.226
    1.82786e-5      460.997
    1.82865e-5      422.986
    1.82945e-5      387.322
    1.83025e-5      354.073
    1.83104e-5      323.261
    1.83184e-5      294.863
    1.83264e-5      268.821
    1.83343e-5      245.047
    1.83397e-5      230.405
     1.8345e-5      216.685
    1.83503e-5       203.85
    1.83556e-5      191.857
    1.83609e-5      180.665
    1.83662e-5      170.231
    1.83715e-5      160.512
    1.83768e-5      151.465
    1.83821e-5       143.05
    1.83875e-5      135.225
    1.83928e-5      127.951
    1.84007e-5      117.992
    1.84087e-5      109.066
    1.84167e-5      101.063
    1.84246e-5      93.8803
    1.84313e-5      88.4546
    1.84392e-5      82.5423
    1.84472e-5      77.2117
    1.84552e-5      72.3952
    1.84635e-5      67.8255
    1.84723e-5       63.509
    1.84811e-5      59.6144
    1.84898e-5      56.0889
    1.84986e-5      52.8872
    1.85074e-5      49.9702
    1.85161e-5      47.3041
    1.85249e-5        44.86
    1.85352e-5      42.2238
    1.85472e-5      39.4782
    1.85591e-5      37.0073
    1.85711e-5      34.7737
     1.8583e-5      32.7466
     1.8595e-5         30.9
    1.86069e-5       29.212
    1.86189e-5      27.6644
    1.86328e-5      26.0151
    1.86488e-5      24.3108
    1.86647e-5       22.774
    1.86806e-5      21.3827
    1.86966e-5      20.1187
    1.87125e-5      18.9665
    1.87284e-5      17.9129
    1.87444e-5      16.9469
    1.87616e-5      15.9878
    1.87802e-5      15.0452
    1.87988e-5      14.1852
    1.88174e-5      13.3982
     1.8836e-5      12.6761
    1.88546e-5       12.012
    1.88732e-5      11.3996
    1.89011e-5      10.5667
    1.89233e-5      9.96678
    1.89456e-5      9.41743
    1.89678e-5      8.91313
    1.89901e-5      8.44905
    1.90124e-5      8.02101
    1.90458e-5      7.43865
    1.90791e-5      6.91876
    1.91114e-5      6.46843
    1.91436e-5       6.0617
    1.91758e-5      5.69317
     1.9208e-5      5.35828
    1.92402e-5       5.0532
    1.92711e-5       4.7852
    1.93115e-5      4.46833
    1.93479e-5      4.21216
    1.93843e-5      3.98095
    1.94247e-5      3.75047
    1.94651e-5      3.54397
    1.95156e-5      3.31147
    1.95843e-5      3.02299
     1.9649e-5      2.77107
    1.96995e-5      2.59103
      1.975e-5      2.42957
    1.97978e-5      2.29396
    1.98489e-5      2.16483
    1.99102e-5      2.02729
    1.99777e-5      1.89266
    2.00452e-5      1.77128
    2.01167e-5      1.65524
    2.01882e-5      1.55187
    2.02526e-5      1.46873
    2.03247e-5      1.38523
    2.04013e-5      1.30583
    2.04652e-5      1.24612
    2.05419e-5       1.1813
    2.06185e-5      1.12314
    2.07169e-5       1.0571
    2.07897e-5      1.01373
    2.08625e-5     0.974562
    2.09722e-5     0.922741
     2.1083e-5     0.878422
    2.11938e-5     0.841461
    2.13056e-5     0.811216
    2.13804e-5     0.794878
    2.14553e-5     0.781764
    2.15302e-5     0.772035
    2.16082e-5     0.765812
    2.16862e-5     0.764122
    2.17627e-5     0.767672
    2.18201e-5     0.774414
    2.18775e-5     0.785437
    2.19348e-5     0.801752
    2.19731e-5     0.816253
    2.20219e-5     0.840052
    2.20666e-5     0.868262
    2.20963e-5     0.891386
     2.2126e-5     0.918763
    2.21558e-5     0.951295
    2.21855e-5     0.990158
    2.22078e-5      1.02438
    2.22301e-5      1.06389
    2.22505e-5      1.10544
    2.22708e-5      1.15335
    2.22911e-5        1.209
    2.23064e-5      1.25688
    2.23216e-5      1.31111
    2.23369e-5      1.37289
    2.23521e-5      1.44379
    2.23674e-5      1.52578
    2.23775e-5      1.58782
    2.23877e-5      1.65682
    2.23991e-5      1.74414
    2.24087e-5        1.826
    2.24182e-5      1.91747
    2.24277e-5      2.02001
    2.24373e-5      2.13531
    2.24468e-5      2.26529
    2.24563e-5      2.41217
    2.24659e-5      2.57844
    2.24754e-5       2.7669
    2.24818e-5      2.90637
    2.24881e-5      3.05808
    2.24945e-5      3.22305
    2.25018e-5       3.4325
    2.25092e-5      3.66308
    2.25166e-5      3.91666
    2.25239e-5      4.19513
    2.25313e-5      4.50041
    2.25387e-5      4.83441
    2.25461e-5      5.19897
    2.25534e-5      5.59585
     2.2561e-5      6.04212
    2.25687e-5       6.5262
    2.25763e-5      7.04934
    2.25839e-5      7.61236
    2.25915e-5      8.21569
    2.25992e-5      8.85915
    2.26093e-5      9.77813
    2.26195e-5      10.7634
    2.26297e-5      11.8089
    2.26449e-5      13.4704
    2.26856e-5      18.1222
    2.27008e-5      19.7752
     2.2711e-5      20.7927
    2.27212e-5      21.7175
    2.27313e-5       22.529
    2.27415e-5      23.2085
    2.27499e-5      23.6582
    2.27598e-5      24.0496
      2.277e-5      24.2844
    2.27787e-5      24.3468
    2.27872e-5      24.2822
    2.27974e-5       24.045
    2.28066e-5      23.6875
    2.28147e-5      23.2611
    2.28249e-5      22.5949
     2.2835e-5      21.7957
    2.28452e-5      20.8822
    2.28604e-5      19.3422
    2.28757e-5      17.6632
    2.29113e-5      13.5968
    2.29265e-5       11.934
    2.29367e-5      10.8858
    2.29469e-5      9.89656
     2.2957e-5      8.97246
    2.29646e-5      8.32455
    2.29723e-5      7.71635
    2.29794e-5      7.18471
    2.29865e-5      6.68765
    2.29936e-5      6.22455
    2.30007e-5      5.79455
    2.30073e-5       5.4239
    2.30139e-5      5.07974
    2.30206e-5       4.7609
    2.30272e-5      4.46611
    2.30338e-5      4.19406
    2.30404e-5       3.9434
     2.3047e-5      3.71276
    2.30536e-5       3.5008
      2.306e-5      3.31336
    2.30663e-5      3.14082
    2.30727e-5      2.98205
     2.3079e-5      2.83601
    2.30854e-5      2.70169
    2.30949e-5       2.5201
    2.31044e-5      2.35977
     2.3114e-5      2.21803
    2.31235e-5      2.09249
     2.3133e-5      1.98106
    2.31426e-5      1.88188
    2.31521e-5      1.79336
      2.316e-5      1.72671
    2.31696e-5      1.65422
    2.31791e-5      1.58892
    2.31934e-5      1.50247
    2.32077e-5      1.42761
     2.3222e-5      1.36233
    2.32363e-5      1.30502
    2.32506e-5       1.2544
    2.32696e-5      1.19559
    2.32887e-5      1.14497
    2.33077e-5      1.10109
    2.33273e-5      1.06194
    2.33468e-5      1.02774
    2.33729e-5      0.98856
    2.33989e-5     0.955472
     2.3425e-5     0.927415
     2.3451e-5     0.903567
    2.34901e-5     0.874308
    2.35312e-5     0.850377
    2.35765e-5     0.830563
    2.36218e-5     0.816287
    2.36671e-5     0.806597
    2.37274e-5     0.799666
    2.37681e-5     0.798355
    2.38205e-5     0.800216
    2.38833e-5     0.807296
    2.39461e-5     0.819349
     2.4009e-5     0.836271
    2.40718e-5     0.858153
    2.41353e-5     0.885526
     2.4199e-5      0.91881
    2.42627e-5     0.958535
    2.43265e-5      1.00559
    2.43902e-5      1.06111
    2.44497e-5      1.12189
    2.45006e-5      1.18207
    2.45516e-5      1.25109
    2.46025e-5      1.33056
    2.46365e-5      1.39034
    2.46705e-5       1.4564
    2.47044e-5      1.52959
    2.47443e-5      1.62588
    2.47841e-5      1.73539
    2.48107e-5      1.81693
    2.48372e-5      1.90632
    2.48638e-5      2.00459
    2.48903e-5      2.11295
    2.49169e-5      2.23287
    2.49408e-5      2.35209
    2.49647e-5      2.48356
    2.49886e-5      2.62908
    2.50125e-5      2.79077
    2.50364e-5       2.9712
    2.50566e-5      3.14045
    2.50749e-5      3.30948
    2.50932e-5      3.49519
    2.51139e-5      3.72817
    2.51315e-5      3.94731
    2.51474e-5      4.16667
    2.51633e-5      4.40794
    2.51793e-5      4.67431
    2.51952e-5      4.96961
    2.52111e-5      5.29849
    2.52271e-5      5.66669
     2.5243e-5      6.08134
    2.52536e-5      6.38791
    2.52642e-5       6.7223
    2.52749e-5      7.08828
    2.52855e-5      7.49033
    2.52966e-5      7.95711
    2.53078e-5      8.47679
    2.53165e-5      8.92495
    2.53259e-5      9.45316
    2.53365e-5      10.1214
    2.53444e-5      10.6768
    2.53521e-5      11.2637
    2.53597e-5      11.8942
    2.53673e-5      12.5839
    2.53752e-5      13.3814
    2.53832e-5      14.2609
    2.53912e-5      15.2321
    2.53991e-5      16.3056
    2.54071e-5      17.4931
    2.54151e-5      18.8072
     2.5423e-5      20.2615
     2.5431e-5      21.8705
     2.5439e-5      23.6496
    2.54469e-5      25.6147
    2.54549e-5      27.7824
    2.54629e-5      30.1696
    2.54708e-5      32.7932
    2.54788e-5      35.6698
    2.54868e-5      38.8152
    2.54947e-5      42.2441
    2.55027e-5      45.9699
    2.55107e-5      50.0033
     2.5516e-5      52.8674
    2.55252e-5      58.1531
    2.55343e-5      63.8661
    2.55447e-5      70.7964
     2.5555e-5      78.2415
    2.55653e-5      86.1655
    2.55756e-5      94.5153
    2.55911e-5      107.678
    2.56324e-5       143.98
    2.56479e-5      156.739
    2.56582e-5      164.572
    2.56686e-5      171.684
    2.56789e-5      177.928
    2.56892e-5      183.171
    2.56995e-5      187.297
    2.57081e-5      189.792
    2.57161e-5      191.351
    2.57245e-5      192.148
    2.57278e-5      192.218
    2.57377e-5      191.615
    2.57481e-5      189.706
    2.57581e-5      186.628
    2.57666e-5      183.135
     2.5777e-5      177.892
    2.57873e-5      171.653
    2.57976e-5      164.551
    2.58131e-5      152.606
    2.58286e-5      139.576
    2.58699e-5      103.376
    2.58854e-5      90.4858
    2.58983e-5      80.4001
    2.59086e-5      72.8474
    2.59189e-5      65.7972
    2.59267e-5      60.8543
    2.59344e-5       56.212
    2.59421e-5      51.8712
    2.59499e-5      47.8286
    2.59576e-5      44.0779
    2.59638e-5      41.2817
      2.597e-5      38.6611
    2.59762e-5      36.2101
    2.59824e-5      33.9217
    2.59886e-5      31.7887
    2.59948e-5      29.8036
     2.6001e-5      27.9587
    2.60072e-5      26.2462
     2.6014e-5      24.5153
    2.60207e-5      22.9233
    2.60275e-5      21.4603
    2.60343e-5      20.1168
    2.60411e-5      18.8834
    2.60478e-5      17.7514
    2.60546e-5      16.7126
    2.60614e-5      15.7591
    2.60682e-5      14.8835
    2.60749e-5      14.0791
    2.60824e-5      13.2722
    2.60911e-5      12.4139
    2.60998e-5      11.6412
    2.61085e-5      10.9442
    2.61172e-5      10.3138
    2.61259e-5      9.74247
    2.61346e-5      9.22322
    2.61433e-5      8.75006
    2.61549e-5      8.18187
    2.61666e-5      7.67563
    2.61759e-5      7.30678
    2.61866e-5      6.92387
    2.61972e-5      6.57542
    2.62079e-5       6.2572
    2.62221e-5      5.87378
    2.62363e-5      5.53067
    2.62504e-5       5.2221
    2.62646e-5      4.94334
    2.62788e-5      4.69049
    2.62963e-5      4.41083
    2.63117e-5      4.18688
    2.63272e-5      3.98311
    2.63479e-5       3.7387
    2.63685e-5      3.52119
    2.63892e-5      3.32675
    2.64098e-5      3.15224
    2.64305e-5      2.99503
    2.64511e-5      2.85297
    2.64753e-5      2.70329
    2.64995e-5      2.56942
    2.65237e-5      2.44931
    2.65479e-5      2.34124
    2.65802e-5       2.2134
    2.66124e-5      2.10158
    2.66447e-5      2.00347
     2.6677e-5      1.91722
    2.67092e-5      1.84126
      2.675e-5      1.75804
    2.67908e-5      1.68713
    2.68315e-5      1.62683
    2.68723e-5      1.57575
    2.69131e-5      1.53276
    2.69539e-5      1.49695
    2.69946e-5      1.46757
    2.70354e-5      1.44403
    2.70795e-5      1.42459
    2.71456e-5      1.40614
    2.72117e-5      1.39945
    2.72597e-5      1.40149
    2.73317e-5      1.41501
    2.74036e-5      1.44095
    2.74756e-5      1.47951
    2.75236e-5      1.51249
    2.75716e-5      1.55162
    2.76246e-5      1.60246
    2.76827e-5       1.6681
    2.77407e-5      1.74532
    2.77988e-5      1.83558
     2.7853e-5      1.93333
    2.79035e-5      2.03751
    2.79539e-5      2.15636
    2.79918e-5      2.25648
    2.80296e-5       2.3673
    2.80655e-5      2.48344
    2.81013e-5      2.61187
    2.81252e-5      2.70512
    2.81656e-5      2.87826
    2.81974e-5      3.03053
    2.82293e-5      3.19834
    2.82612e-5      3.38353
     2.8293e-5      3.58817
    2.83249e-5       3.8147
    2.83547e-5      4.04849
    2.83848e-5      4.31037
     2.8412e-5      4.57241
    2.84439e-5      4.91416
    2.84651e-5      5.16643
    2.84864e-5      5.44115
    2.85076e-5      5.74125
    2.85289e-5      6.07011
    2.85501e-5      6.43164
    2.85714e-5      6.83046
    2.85894e-5      7.20279
    2.86117e-5      7.71117
    2.86324e-5      8.23845
    2.86531e-5      8.82768
    2.86736e-5      9.48045
    2.86935e-5      10.1962
    2.87068e-5      10.7243
    2.87201e-5      11.2991
    2.87333e-5      11.9268
    2.87466e-5      12.6146
    2.87599e-5      13.3712
    2.87732e-5       14.207
    2.87842e-5        14.97
    2.87952e-5      15.8047
    2.88062e-5      16.7213
    2.88173e-5      17.7317
    2.88283e-5      18.8498
    2.88393e-5      20.0923
    2.88503e-5      21.4788
    2.88586e-5      22.6268
    2.88667e-5      23.8525
    2.88747e-5      25.1756
    2.88827e-5      26.6218
    2.88907e-5      28.2053
    2.88987e-5      29.9421
    2.89067e-5      31.8499
    2.89147e-5      33.9483
    2.89227e-5      36.2586
    2.89307e-5      38.8043
    2.89388e-5      41.6109
    2.89468e-5      44.7057
    2.89548e-5      48.1184
    2.89628e-5      51.8801
    2.89708e-5      56.0238
    2.89788e-5      60.5838
    2.89868e-5      65.5956
    2.89948e-5      71.0952
    2.90028e-5       77.119
    2.90108e-5      83.7025
    2.90188e-5      90.8807
    2.90268e-5      98.6857
    2.90348e-5      107.147
    2.90428e-5      116.291
    2.90508e-5      126.137
    2.90599e-5      138.164
    2.90695e-5      151.912
    2.90791e-5      166.698
    2.90898e-5      184.311
    2.91005e-5      203.102
    2.91112e-5      222.965
    2.91272e-5      254.434
    2.91539e-5      309.557
    2.91752e-5      353.539
    2.91912e-5        384.7
    2.92072e-5      412.937
    2.92179e-5      429.539
    2.92286e-5      443.974
    2.92393e-5      455.943
    2.92499e-5      465.193
    2.92606e-5      471.525
    2.92713e-5        474.8
    2.92771e-5      475.269
    2.92873e-5      473.844
     2.9298e-5      469.317
    2.93084e-5       462.01
    2.93172e-5      453.709
    2.93279e-5      441.229
    2.93385e-5       426.35
    2.93492e-5      409.378
    2.93652e-5      380.739
    2.93812e-5      349.359
    2.94239e-5      261.294
    2.94399e-5      229.566
    2.94533e-5      204.578
     2.9464e-5      185.761
    2.94746e-5      168.108
    2.94826e-5      155.676
    2.94906e-5      143.955
    2.94986e-5      132.953
    2.95067e-5      122.668
    2.95147e-5       113.09
    2.95211e-5      105.925
    2.95275e-5      99.1913
    2.95339e-5      92.8754
    2.95403e-5      86.9628
    2.95467e-5      81.4373
    2.95531e-5      76.2822
    2.95595e-5      71.4798
    2.95659e-5      67.0122
    2.95729e-5      62.4871
    2.95799e-5      58.3168
    2.95869e-5      54.4774
    2.95939e-5      50.9458
    2.96009e-5      47.6996
    2.96079e-5      44.7171
    2.96149e-5      41.9778
    2.96219e-5      39.4621
    2.96289e-5      37.1513
     2.9636e-5      35.0284
    2.96433e-5       32.988
    2.96513e-5      30.9568
    2.96593e-5      29.1086
    2.96673e-5      27.4248
    2.96753e-5      25.8885
    2.96833e-5      24.4843
    2.96913e-5      23.1987
    2.96993e-5      22.0192
      2.971e-5      20.5929
    2.97207e-5      19.3133
    2.97327e-5      18.0248
    2.97427e-5       17.057
    2.97527e-5      16.1731
    2.97661e-5      15.1084
    2.97794e-5      14.1557
    2.97927e-5      13.2989
    2.98061e-5      12.5248
    2.98194e-5      11.8221
    2.98328e-5      11.1819
    2.98501e-5      10.4303
    2.98675e-5       9.7573
    2.98848e-5      9.15172
    2.99022e-5      8.60433
    2.99195e-5      8.10753
    2.99368e-5        7.655
    2.99542e-5      7.24141
    2.99715e-5      6.86225
    2.99949e-5      6.39951
    3.00182e-5      5.98438
    3.00416e-5      5.61036
    3.00649e-5      5.27206
    3.00883e-5      4.96498
    3.01116e-5       4.6853
     3.0135e-5       4.4298
    3.01584e-5      4.19572
     3.0185e-5       3.9514
    3.02117e-5      3.72895
    3.02384e-5      3.52581
    3.02651e-5      3.33978
    3.02918e-5      3.16896
    3.03185e-5      3.01173
    3.03585e-5       2.7983
    3.03885e-5      2.65377
    3.04219e-5      2.50685
    3.04552e-5      2.37269
    3.04886e-5      2.24987
     3.0522e-5      2.13713
    3.05553e-5      2.03339
    3.06054e-5      1.89265
    3.06387e-5      1.80759
    3.06888e-5      1.69142
    3.07388e-5      1.58727
    3.07888e-5       1.4935
    3.08389e-5      1.40877
    3.08889e-5      1.33196
    3.09389e-5      1.26212
     3.0989e-5      1.19844
     3.1039e-5      1.14022
    3.10938e-5      1.08209
    3.11485e-5       1.0291
    3.12032e-5     0.980658
    3.12853e-5     0.915465
    3.13674e-5     0.857988
    3.14496e-5     0.807076
    3.15324e-5     0.761384
    3.16157e-5     0.720445
     3.1699e-5     0.683824
    3.17822e-5     0.650974
    3.18655e-5     0.621407
    3.19773e-5     0.586105
    3.20899e-5     0.554914
    3.22025e-5     0.527534
    3.23151e-5      0.50343
    3.24284e-5     0.481974
    3.25426e-5     0.462853
    3.26568e-5     0.445919
     3.2771e-5     0.430909
    3.29438e-5     0.411353
    3.31175e-5     0.394993
    3.32912e-5     0.381411
    3.34673e-5     0.370106
    3.36435e-5     0.360966
    3.38198e-5     0.353712
    3.39967e-5      0.34814
    3.42326e-5     0.343114
     3.4445e-5     0.340848
    3.45247e-5      0.34065
    3.46097e-5     0.341123
    3.46957e-5     0.342994
     3.4785e-5      0.34725
    3.49018e-5      0.35422
    3.49666e-5     0.355827
    3.49719e-5     0.355838
    3.50463e-5     0.354332
    3.51769e-5     0.349701
    3.52523e-5     0.348944
    3.53639e-5     0.350297
    3.55073e-5      0.35402
    3.57092e-5      0.36106
    3.59007e-5     0.369336
    3.60886e-5     0.379018
    3.62728e-5     0.390197
    3.64671e-5      0.40437
    3.65693e-5     0.413679
    3.66409e-5     0.422211
    3.66945e-5     0.430926
    3.67421e-5      0.44131
     3.6787e-5     0.454025
    3.68433e-5     0.473541
    3.69148e-5     0.499643
    3.69557e-5      0.51143
    3.69894e-5     0.517718
    3.70252e-5     0.520388
    3.70303e-5     0.520437
    3.70661e-5     0.518728
    3.71172e-5     0.511884
    3.71908e-5     0.500458
    3.72408e-5     0.495735
    3.72797e-5     0.494538
    3.73257e-5     0.495625
     3.7387e-5     0.500163
    3.74898e-5     0.512144
    3.76404e-5     0.534366
    3.77361e-5     0.550804
     3.7829e-5     0.569584
    3.79113e-5     0.589984
    3.80903e-5     0.641879
    3.81572e-5      0.65704
    3.83468e-5     0.688956
    3.84185e-5     0.704776
    3.85062e-5     0.728406
    3.86124e-5     0.761634
    3.87186e-5     0.798843
    3.88341e-5     0.843831
    3.89497e-5     0.894069
    3.90599e-5     0.947626
    3.91595e-5      1.00151
     3.9259e-5      1.06148
    3.93586e-5      1.12856
    3.94582e-5      1.20405
    3.95578e-5      1.28961
    3.96208e-5      1.34986
    3.96837e-5      1.41565
    3.97467e-5      1.48781
    3.98097e-5      1.56731
    3.98726e-5      1.65538
    3.99356e-5      1.75352
    3.99986e-5      1.86365
    4.00458e-5      1.95557
    4.01034e-5       2.0806
    4.01453e-5      2.18198
    4.01871e-5      2.29387
     4.0229e-5      2.41814
    4.02709e-5      2.55718
    4.03127e-5      2.71406
    4.03441e-5      2.84579
    4.03755e-5      2.99196
    4.04097e-5      3.17049
    4.04361e-5      3.32546
    4.04625e-5      3.49815
    4.04889e-5      3.69217
    4.05153e-5      3.91229
    4.05351e-5      4.09829
    4.05549e-5      4.30608
    4.05747e-5      4.54024
    4.05945e-5       4.8067
    4.06122e-5      5.07864
    4.06257e-5      5.31222
    4.06393e-5      5.57251
    4.06528e-5      5.86424
    4.06663e-5      6.19305
    4.06798e-5      6.56566
    4.06934e-5      6.99006
    4.07024e-5      7.30633
    4.07114e-5      7.65292
    4.07204e-5       8.0333
    4.07294e-5      8.45132
    4.07385e-5      8.91115
    4.07475e-5      9.41735
    4.07584e-5      10.1015
    4.07681e-5      10.7754
    4.07778e-5      11.5227
    4.07874e-5      12.3505
    4.07971e-5      13.2667
    4.08067e-5      14.2793
    4.08164e-5      15.3963
    4.08261e-5      16.6259
    4.08357e-5      17.9761
    4.08454e-5      19.4546
     4.0855e-5      21.0686
    4.08662e-5       23.119
    4.08775e-5      25.3686
    4.08887e-5      27.8235
    4.08999e-5      30.4867
    4.09111e-5       33.358
    4.09225e-5      36.5059
    4.09341e-5      39.8961
    4.09457e-5      43.4788
    4.09612e-5      48.5174
    4.09818e-5      55.5871
     4.1023e-5      70.0632
    4.10436e-5      76.8941
    4.10591e-5       81.576
    4.10745e-5      85.7287
      4.109e-5       89.226
    4.11055e-5       91.958
    4.11173e-5      93.4784
    4.11292e-5      94.4678
    4.11436e-5      94.9298
    4.11443e-5      94.9313
     4.1157e-5      94.6203
    4.11683e-5      93.8099
    4.11786e-5      92.6511
     4.1191e-5       90.757
    4.12065e-5      87.6799
    4.12219e-5      83.9126
    4.12374e-5      79.5767
     4.1258e-5      73.1421
    4.12889e-5      62.7491
    4.13147e-5      54.0592
    4.13301e-5      49.0574
    4.13476e-5      43.7086
      4.136e-5      40.1838
    4.13703e-5      37.4236
    4.13806e-5      34.8336
    4.13909e-5      32.4188
    4.14012e-5      30.1815
    4.14109e-5      28.2447
    4.14205e-5      26.4609
    4.14302e-5      24.8264
    4.14399e-5       23.336
    4.14495e-5      21.9837
    4.14592e-5      20.7625
    4.14688e-5      19.6651
    4.14785e-5      18.6837
    4.14882e-5      17.8105
    4.14978e-5      17.0376
    4.15088e-5      16.2731
    4.15178e-5       15.725
    4.15268e-5      15.2444
    4.15403e-5      14.6379
    4.15539e-5      14.1535
    4.15674e-5      13.7759
    4.15809e-5      13.4927
    4.15942e-5      13.2919
    4.16075e-5      13.1604
    4.16208e-5      13.0902
    4.16297e-5       13.074
    4.16474e-5      13.1075
    4.16652e-5      13.2201
    4.16829e-5      13.4038
    4.17007e-5       13.653
    4.17184e-5      13.9644
    4.17363e-5      14.3375
    4.17541e-5      14.7713
    4.17719e-5      15.2672
    4.17897e-5      15.8277
    4.18075e-5      16.4567
    4.18253e-5      17.1595
    4.18431e-5      17.9426
    4.18609e-5      18.8144
    4.18807e-5      19.8997
    4.19005e-5      21.1247
    4.19203e-5      22.5113
    4.19351e-5      23.6738
      4.195e-5       24.957
    4.19648e-5       26.378
    4.19797e-5      27.9575
    4.19945e-5      29.7205
    4.20093e-5      31.6971
    4.20192e-5      33.1512
    4.20331e-5      35.3976
    4.20435e-5      37.2655
    4.20539e-5      39.3121
    4.20643e-5      41.5598
    4.20746e-5       44.034
     4.2085e-5      46.7638
    4.20954e-5      49.7814
    4.21058e-5      53.1233
    4.21162e-5      56.8303
    4.21266e-5      60.9475
    4.21348e-5      64.5251
    4.21443e-5      69.0568
    4.21538e-5      74.0537
    4.21633e-5      79.5636
    4.21728e-5       85.638
    4.21823e-5       92.331
    4.21918e-5      99.6997
    4.22013e-5      107.803
     4.2209e-5      114.971
    4.22179e-5      123.936
    4.22268e-5      133.697
    4.22357e-5      144.301
    4.22446e-5      155.799
    4.22535e-5      168.237
    4.22615e-5      180.116
    4.22694e-5      192.798
    4.22773e-5      206.306
    4.22852e-5      220.659
    4.22971e-5      243.801
    4.23089e-5      268.893
    4.23208e-5      295.922
    4.23327e-5       324.83
    4.23446e-5      355.516
    4.23604e-5      398.926
    4.23802e-5      456.458
    4.24356e-5      624.249
    4.24578e-5      686.847
     4.2472e-5      723.367
    4.24847e-5      752.551
    4.24973e-5      778.055
      4.251e-5      799.369
    4.25227e-5      816.051
    4.25345e-5      827.173
    4.25464e-5      833.708
    4.25573e-5      835.561
    4.25698e-5      832.788
    4.25812e-5      825.661
    4.25947e-5        811.9
    4.26058e-5       796.41
    4.26177e-5      775.947
    4.26303e-5      750.124
    4.26438e-5      718.736
     4.2658e-5      681.815
     4.2681e-5      616.516
    4.27364e-5      449.022
    4.27562e-5      392.019
     4.2772e-5      349.122
    4.27839e-5      318.852
    4.27958e-5      290.373
    4.28076e-5      263.775
    4.28195e-5      239.106
    4.28314e-5      216.372
    4.28393e-5       202.28
    4.28472e-5      189.022
    4.28551e-5      176.579
    4.28654e-5      161.579
    4.28731e-5      151.169
    4.28809e-5      141.448
    4.28886e-5      132.384
    4.28963e-5      123.947
    4.29044e-5      115.717
    4.29125e-5      108.106
    4.29206e-5      101.075
    4.29287e-5      94.5878
    4.29369e-5      88.6063
     4.2945e-5      83.0953
    4.29531e-5      78.0202
    4.29612e-5      73.3482
    4.29708e-5      68.2741
    4.29805e-5      63.6758
    4.29901e-5      59.5071
    4.29998e-5      55.7254
    4.30094e-5      52.2918
    4.30191e-5      49.1706
    4.30287e-5      46.3294
    4.30384e-5       43.739
     4.3048e-5      41.3731
    4.30577e-5      39.2082
    4.30683e-5      37.0358
    4.30808e-5      34.7181
    4.30933e-5       32.633
    4.31058e-5      30.7503
    4.31183e-5      29.0438
    4.31308e-5      27.4915
    4.31433e-5      26.0743
    4.31558e-5      24.7762
    4.31725e-5       23.207
    4.31892e-5      21.7975
    4.32045e-5      20.6268
    4.32253e-5       19.191
    4.32462e-5      17.9134
     4.3267e-5      16.7702
    4.32878e-5      15.7423
    4.33087e-5       14.814
    4.33289e-5      13.9968
    4.33491e-5      13.2511
    4.33733e-5      12.4392
    4.33936e-5      11.8233
    4.34239e-5      10.9893
    4.34542e-5       10.248
    4.34845e-5      9.58535
    4.35148e-5      8.98962
    4.35451e-5      8.45119
    4.35774e-5      7.93115
    4.36078e-5      7.48776
    4.36381e-5      7.08187
    4.36684e-5       6.7094
    4.37088e-5       6.2591
    4.37492e-5      5.85593
    4.37735e-5      5.63438
    4.38139e-5      5.29563
    4.38556e-5      4.98208
    4.38972e-5      4.70035
     4.3925e-5      4.52818
    4.39755e-5      4.24328
    4.40261e-5      3.99008
    4.40766e-5      3.76405
    4.41271e-5      3.56154
     4.4182e-5       3.3645
     4.4237e-5      3.18854
    4.42919e-5      3.03099
    4.43469e-5      2.88961
    4.44018e-5      2.76253
    4.44517e-5      2.65818
    4.45148e-5      2.53955
     4.4578e-5      2.43436
    4.46411e-5      2.34114
    4.47043e-5      2.25865
    4.47674e-5      2.18584
    4.48622e-5      2.09288
    4.49585e-5       2.0162
    4.50579e-5      1.95385
    4.51574e-5      1.90699
    4.52568e-5      1.87434
    4.53563e-5      1.85503
    4.54558e-5      1.84872
    4.55538e-5      1.85519
    4.56518e-5      1.87448
    4.57498e-5      1.90716
    4.58478e-5       1.9543
    4.59458e-5      2.01739
     4.6011e-5      2.06918
     4.6076e-5      2.12956
    4.61411e-5      2.19959
    4.62062e-5      2.28043
    4.62713e-5      2.37357
    4.63364e-5      2.48083
    4.64014e-5      2.60451
    4.64665e-5      2.74752
    4.65218e-5      2.88707
    4.65674e-5       3.0166
     4.6613e-5      3.16151
    4.66585e-5      3.32443
    4.67041e-5      3.50864
    4.67496e-5      3.71836
    4.67838e-5      3.89567
     4.6818e-5      4.09339
    4.68521e-5       4.3153
    4.68772e-5      4.49617
    4.69045e-5      4.71412
    4.69319e-5      4.95747
    4.69592e-5      5.23136
    4.69865e-5      5.54256
     4.7007e-5      5.80586
    4.70275e-5      6.10036
     4.7048e-5      6.43263
    4.70685e-5      6.81119
    4.70871e-5       7.2028
    4.71017e-5      7.55199
    4.71164e-5      7.94342
     4.7131e-5      8.38483
    4.71456e-5      8.88549
    4.71603e-5      9.45645
      4.717e-5      9.88252
    4.71798e-5        10.35
    4.71896e-5      10.8638
    4.71993e-5      11.4294
    4.72091e-5      12.0526
    4.72189e-5      12.7399
    4.72286e-5      13.4982
    4.72384e-5      14.3351
    4.72481e-5      15.2586
    4.72579e-5      16.2772
    4.72677e-5      17.3997
    4.72774e-5      18.6354
    4.72872e-5      19.9938
     4.7297e-5      21.4845
    4.73067e-5      23.1171
    4.73165e-5      24.9009
    4.73262e-5       26.845
     4.7336e-5      28.9577
    4.73468e-5      31.5016
    4.73554e-5      33.6844
     4.7364e-5      36.0127
    4.73726e-5       38.489
    4.73855e-5      42.4834
    4.73983e-5      46.8125
    4.74112e-5      51.4675
    4.74269e-5      57.5219
    4.74425e-5      63.9809
    4.74633e-5      73.0978
    4.75206e-5      99.1604
    4.75362e-5      105.875
    4.75513e-5      111.927
    4.75653e-5      117.045
     4.7581e-5      122.011
    4.75966e-5      126.089
    4.76109e-5      128.949
    4.76226e-5      130.616
    4.76382e-5      131.848
    4.76455e-5      132.027
    4.76611e-5      131.562
    4.76731e-5      130.435
    4.76851e-5      128.663
    4.77007e-5      125.446
    4.77163e-5        121.3
    4.77319e-5      116.356
    4.77424e-5      112.688
    4.77632e-5      104.669
    4.77996e-5      89.4463
    4.78309e-5      76.4259
    4.78465e-5      70.2662
    4.78621e-5      64.4705
    4.78777e-5      59.1106
    4.78906e-5      55.0535
    4.79035e-5      51.3469
    4.79164e-5      48.0015
    4.79293e-5       45.021
    4.79422e-5      42.4029
    4.79517e-5      40.7007
    4.79621e-5      39.0524
    4.79725e-5      37.6249
    4.79829e-5      36.4107
    4.79954e-5      35.2243
    4.80063e-5      34.4185
    4.80173e-5      33.8208
    4.80282e-5      33.4232
    4.80391e-5       33.219
    4.80464e-5      33.1874
    4.80574e-5      33.2939
    4.80683e-5      33.5829
    4.80793e-5      34.0538
    4.80902e-5      34.7084
    4.81011e-5       35.551
    4.81105e-5      36.4236
    4.81218e-5      37.6876
    4.81332e-5      39.1862
    4.81446e-5      40.9382
    4.81559e-5      42.9669
    4.81673e-5      45.3005
    4.81787e-5      47.9724
    4.81872e-5      50.2218
    4.81957e-5       52.702
    4.82053e-5      55.7967
    4.82149e-5       59.243
    4.82245e-5      63.0767
    4.82341e-5       67.337
    4.82442e-5      72.3296
    4.82518e-5      76.4476
    4.82594e-5      80.9125
    4.82669e-5      85.7496
    4.82745e-5      90.9852
    4.82821e-5      96.6467
    4.82897e-5      102.762
    4.82973e-5      109.361
    4.83048e-5      116.471
    4.83124e-5      124.123
      4.832e-5      132.346
    4.83301e-5      144.247
    4.83397e-5      156.601
    4.83488e-5      169.297
    4.83584e-5      183.791
    4.83685e-5      200.309
    4.83786e-5       218.16
    4.83887e-5      237.374
    4.83985e-5      257.437
    4.84081e-5      278.249
     4.8418e-5       300.89
    4.84281e-5      325.427
     4.8442e-5      361.369
    4.84554e-5      397.819
    4.84715e-5      444.321
    4.84968e-5      520.598
    4.85356e-5      639.512
    4.85563e-5      699.402
    4.85746e-5      747.756
    4.85929e-5      790.035
    4.86051e-5      814.067
    4.86173e-5      834.289
    4.86328e-5      853.996
    4.86441e-5      863.731
    4.86563e-5      869.737
    4.86658e-5      871.095
    4.86782e-5      868.443
    4.86904e-5      861.024
    4.87032e-5      848.248
    4.87136e-5      834.334
    4.87258e-5      814.133
     4.8738e-5       790.13
    4.87563e-5      747.902
    4.87746e-5      699.609
    4.87929e-5      646.934
    4.88538e-5      461.015
    4.88721e-5      407.711
    4.88843e-5       373.85
    4.88965e-5      341.595
    4.89072e-5      314.821
    4.89209e-5      282.521
    4.89301e-5      262.364
    4.89392e-5      243.328
    4.89477e-5      226.574
    4.89563e-5      210.793
    4.89648e-5       195.97
    4.89734e-5      182.086
    4.89819e-5      169.115
    4.89904e-5      157.026
     4.8999e-5      145.786
    4.90075e-5      135.358
    4.90155e-5      126.284
    4.90235e-5      117.855
    4.90315e-5      110.037
    4.90395e-5      102.796
    4.90475e-5      96.0981
    4.90555e-5      89.9083
    4.90635e-5      84.1935
    4.90715e-5      78.9215
    4.90795e-5      74.0609
    4.90875e-5      69.5818
    4.90963e-5      65.0797
    4.91066e-5      60.2866
    4.91169e-5      55.9736
    4.91272e-5      52.0911
    4.91374e-5      48.5934
    4.91477e-5      45.4392
     4.9158e-5      42.5908
    4.91683e-5      40.0146
    4.91786e-5      37.6801
    4.91889e-5      35.5604
    4.91992e-5      33.6314
    4.92102e-5      31.7476
    4.92217e-5      29.9796
    4.92331e-5      28.3735
    4.92445e-5      26.9097
     4.9256e-5      25.5712
    4.92712e-5      23.9567
    4.92864e-5      22.5101
    4.93017e-5      21.2071
    4.93169e-5      20.0277
    4.93352e-5      18.7526
    4.93512e-5      17.7449
    4.93672e-5      16.8246
    4.93886e-5       15.715
    4.94099e-5      14.7209
    4.94313e-5      13.8255
    4.94526e-5      13.0154
    4.94739e-5      12.2793
    4.94953e-5       11.608
    4.95212e-5      10.8687
    4.95471e-5      10.2019
     4.9573e-5      9.59807
    4.95989e-5      9.04915
    4.96248e-5      8.54847
    4.96508e-5      8.09037
    4.96767e-5      7.66999
    4.97026e-5       7.2832
    4.97359e-5      6.82936
    4.97692e-5      6.41874
    4.98026e-5      6.04592
    4.98359e-5      5.70631
    4.98692e-5        5.396
    4.99026e-5      5.11168
    4.99359e-5      4.85047
    4.99692e-5      4.60989
    5.00033e-5      4.38287
    5.00545e-5      4.07427
    5.01056e-5      3.79898
    5.01568e-5      3.55232
    5.02079e-5      3.33043
     5.0242e-5      3.19465
    5.02926e-5      3.00937
    5.03431e-5      2.84102
    5.03936e-5      2.68764
    5.04441e-5      2.54761
    5.05047e-5      2.39527
    5.05654e-5       2.2582
    5.06381e-5      2.11137
    5.07088e-5       1.9843
    5.07897e-5      1.85403
    5.08826e-5      1.71919
    5.09736e-5      1.60033
    5.10559e-5      1.50376
    5.11236e-5      1.43219
    5.11969e-5      1.36203
    5.12726e-5      1.29642
    5.13737e-5      1.21825
    5.14722e-5      1.15073
    5.15707e-5      1.09059
    5.16679e-5      1.03755
    5.17627e-5     0.991244
    5.18574e-5     0.949665
    5.19521e-5     0.912356
    5.20784e-5     0.868591
    5.22137e-5     0.828527
    5.23219e-5     0.801087
    5.24301e-5     0.777426
    5.25744e-5     0.751357
    5.27186e-5     0.731237
    5.28228e-5     0.720332
     5.2927e-5     0.712469
    5.30312e-5       0.7077
    5.31354e-5     0.706133
    5.32384e-5     0.707907
    5.33413e-5     0.713227
    5.34442e-5     0.722432
    5.35472e-5     0.735989
    5.36482e-5      0.75417
     5.3724e-5     0.771542
    5.37922e-5     0.790508
    5.38566e-5     0.812018
     5.3921e-5     0.837899
    5.39816e-5     0.867019
    5.40544e-5      0.90848
    5.41352e-5     0.961731
    5.42544e-5      1.04851
    5.43434e-5       1.1197
     5.4404e-5      1.17529
    5.44505e-5      1.22414
    5.44868e-5      1.26715
    5.45272e-5      1.32063
    5.45689e-5       1.3828
    5.46119e-5      1.45517
    5.46548e-5      1.53698
    5.46977e-5      1.62947
    5.47318e-5      1.71157
    5.47697e-5      1.81303
    5.48076e-5      1.92687
    5.48455e-5      2.05511
    5.48834e-5      2.20022
    5.49087e-5      2.30784
    5.49349e-5      2.43012
    5.49621e-5      2.56977
    5.49892e-5      2.72446
    5.50164e-5      2.89652
    5.50436e-5      3.08879
     5.5064e-5      3.24832
    5.50844e-5      3.42296
    5.51048e-5      3.61484
    5.51252e-5      3.82654
    5.51387e-5      3.98019
    5.51582e-5       4.2206
    5.51777e-5      4.48812
    5.51972e-5      4.78753
    5.52118e-5      5.03657
    5.52265e-5      5.30996
    5.52411e-5      5.61135
    5.52557e-5      5.94512
    5.52703e-5      6.31648
    5.52849e-5      6.73168
    5.52984e-5      7.16027
    5.53097e-5      7.55577
    5.53209e-5      7.99105
    5.53322e-5      8.47139
    5.53434e-5      9.00282
    5.53547e-5      9.59212
    5.53659e-5       10.247
    5.53772e-5      10.9761
    5.53884e-5       11.789
    5.53997e-5      12.6965
    5.54109e-5      13.7104
    5.54206e-5      14.6852
    5.54296e-5      15.6725
    5.54386e-5      16.7518
    5.54476e-5      17.9311
    5.54566e-5      19.2192
    5.54656e-5      20.6249
    5.54746e-5      22.1578
    5.54836e-5      23.8275
    5.54926e-5      25.6437
    5.55016e-5      27.6167
    5.55106e-5      29.7564
    5.55196e-5      32.0729
    5.55286e-5      34.5759
    5.55376e-5      37.2747
    5.55466e-5      40.1781
    5.55556e-5      43.2945
    5.55646e-5      46.6307
    5.55736e-5       50.193
    5.55826e-5      53.9861
    5.55934e-5      58.8467
    5.56042e-5      64.0462
     5.5615e-5      69.5825
    5.56297e-5      77.6461
    5.56453e-5      86.8346
     5.5663e-5      97.9671
     5.5681e-5      109.926
     5.5717e-5      134.986
    5.57469e-5      155.807
    5.57649e-5      167.642
    5.57829e-5      178.583
    5.58009e-5      188.305
    5.58189e-5      196.504
    5.58309e-5      200.989
    5.58429e-5       204.61
    5.58555e-5      207.422
    5.58681e-5      209.174
    5.58821e-5      209.841
    5.58933e-5      209.395
    5.59041e-5      208.147
    5.59185e-5      205.261
    5.59305e-5      201.832
    5.59425e-5      197.529
    5.59605e-5      189.578
    5.59785e-5      180.068
    5.59965e-5      169.299
    5.60205e-5      153.541
    5.60804e-5      111.826
    5.60984e-5      99.8114
    5.61146e-5        89.52
    5.61272e-5      81.9308
    5.61398e-5      74.7471
    5.61535e-5      67.4535
    5.61661e-5      61.1899
    5.61787e-5       55.384
    5.61881e-5      51.3296
    5.61996e-5      46.7187
    5.62101e-5      42.8484
    5.62206e-5      39.2742
    5.62311e-5      35.9845
    5.62416e-5      32.9661
    5.62521e-5      30.2046
      5.626e-5      28.2931
    5.62679e-5       26.511
    5.62757e-5      24.8517
    5.62844e-5      23.1673
    5.62934e-5      21.5488
    5.63024e-5      20.0629
    5.63114e-5      18.6999
    5.63204e-5      17.4509
    5.63294e-5      16.3069
    5.63384e-5      15.2597
    5.63474e-5      14.3014
    5.63564e-5      13.4244
    5.63653e-5      12.6217
    5.63743e-5      11.8869
    5.63856e-5      11.0546
    5.63968e-5      10.3079
    5.64081e-5      9.63725
    5.64193e-5      9.03372
    5.64306e-5      8.48956
    5.64418e-5       7.9978
    5.64531e-5      7.55233
    5.64643e-5      7.14772
    5.64756e-5      6.77921
    5.64868e-5      6.44265
    5.64992e-5      6.10497
    5.65138e-5      5.74431
    5.65284e-5      5.41968
     5.6543e-5      5.12613
    5.65577e-5      4.85951
    5.65723e-5      4.61632
    5.65918e-5      4.32353
    5.66113e-5      4.06154
    5.66308e-5      3.82575
    5.66503e-5      3.61246
    5.66708e-5      3.40877
    5.66913e-5      3.22378
    5.67119e-5       3.0551
    5.67324e-5      2.90073
    5.67529e-5        2.759
    5.67837e-5      2.56704
    5.68145e-5       2.3964
    5.68411e-5      2.26396
    5.68677e-5      2.14333
    5.68942e-5      2.03309
    5.69208e-5      1.93205
    5.69473e-5      1.83919
    5.69872e-5      1.71336
     5.7027e-5       1.6015
    5.70589e-5      1.52071
    5.70907e-5      1.44672
    5.71226e-5       1.3788
    5.71667e-5      1.29367
    5.72033e-5      1.22977
    5.72522e-5      1.15298
    5.73053e-5      1.07881
    5.73584e-5      1.01276
    5.74179e-5     0.946721
    5.74774e-5     0.887634
    5.75411e-5     0.830863
    5.76048e-5     0.780053
    5.76702e-5     0.733554
    5.77413e-5     0.688661
    5.78184e-5     0.645973
     5.7898e-5     0.607246
    5.79777e-5     0.573142
    5.80515e-5     0.545049
    5.81224e-5     0.520837
    5.81933e-5     0.499053
    5.82691e-5     0.478259
    5.83448e-5     0.460053
    5.84181e-5     0.445347
    5.84635e-5     0.438124
     5.8509e-5     0.432888
    5.85545e-5     0.430208
    5.85772e-5     0.430003
    5.86202e-5     0.431894
    5.86631e-5     0.436755
    5.87167e-5     0.446127
    5.87874e-5     0.459837
    5.88278e-5     0.465258
    5.88632e-5     0.466896
    5.88956e-5     0.465135
    5.89268e-5      0.46024
    5.89571e-5      0.45259
    5.89874e-5     0.442474
    5.90279e-5     0.426204
    5.91127e-5     0.388852
    5.91531e-5     0.372691
    5.91948e-5     0.358404
    5.92365e-5      0.34677
    5.92769e-5     0.337855
    5.93148e-5     0.331277
    5.93653e-5     0.324564
    5.94411e-5     0.317435
    5.95396e-5     0.311161
    5.96495e-5     0.306421
    5.97594e-5     0.303404
    5.98825e-5     0.301866
    5.99236e-5     0.301784
    6.00341e-5     0.302677
    6.01446e-5     0.305302
    6.02551e-5     0.309858
    6.03656e-5     0.316635
    6.04686e-5     0.325297
    6.05458e-5     0.333547
     6.0623e-5     0.343565
    6.07002e-5     0.355657
    6.07775e-5     0.370214
    6.08387e-5     0.383845
       6.09e-5     0.399655
    6.09613e-5     0.418033
    6.10226e-5     0.439467
    6.10685e-5     0.457915
    6.11145e-5     0.478751
    6.11605e-5     0.502372
    6.12064e-5     0.529264
    6.12524e-5      0.56003
    6.12838e-5     0.583695
    6.13161e-5     0.610525
    6.13483e-5     0.640319
    6.13806e-5      0.67353
    6.14128e-5     0.710705
    6.14451e-5     0.752515
    6.14773e-5     0.799789
    6.15015e-5     0.839449
    6.15257e-5     0.883308
    6.15496e-5     0.931342
    6.15734e-5     0.984888
    6.15973e-5      1.04492
    6.16212e-5      1.11267
    6.16391e-5      1.16947
     6.1657e-5      1.23232
    6.16749e-5      1.30224
    6.16928e-5      1.38046
    6.17107e-5      1.46855
    6.17257e-5      1.55132
    6.17392e-5      1.63431
    6.17528e-5      1.72635
    6.17663e-5      1.82884
    6.17799e-5      1.94343
    6.17934e-5      2.07206
     6.1807e-5      2.21697
    6.18205e-5      2.38077
    6.18295e-5      2.50193
    6.18386e-5      2.63382
    6.18476e-5      2.77752
    6.18566e-5      2.93424
    6.18676e-5      3.14391
    6.18773e-5      3.34845
    6.18869e-5      3.57327
    6.18966e-5      3.82043
    6.19063e-5      4.09209
     6.1916e-5      4.39061
    6.19256e-5      4.71845
    6.19353e-5      5.07821
     6.1945e-5      5.47263
    6.19547e-5      5.90452
    6.19643e-5       6.3768
    6.19747e-5      6.92843
     6.1985e-5      7.53303
    6.19953e-5      8.19423
    6.20056e-5      8.91556
    6.20159e-5      9.70047
    6.20263e-5      10.5521
    6.20366e-5      11.4735
    6.20469e-5      12.4672
    6.20595e-5      13.7789
    6.20721e-5      15.2038
    6.20846e-5       16.743
    6.20972e-5       18.396
    6.21098e-5      20.1606
    6.21246e-5      22.3688
    6.21404e-5      24.8919
    6.21563e-5      27.5512
    6.21831e-5      32.2803
    6.22347e-5      41.5808
    6.22554e-5      45.0854
     6.2276e-5      48.2933
    6.22915e-5      50.4347
     6.2307e-5      52.2984
    6.23225e-5      53.8432
     6.2338e-5      55.0343
    6.23539e-5      55.8643
    6.23699e-5      56.2666
    6.23766e-5      56.3052
    6.23916e-5      56.1132
    6.24035e-5      55.6904
    6.24195e-5      54.7534
    6.24339e-5      53.5629
    6.24494e-5      51.9531
    6.24649e-5      50.0331
    6.24804e-5       47.845
     6.2501e-5       44.591
    6.25217e-5       41.059
    6.25805e-5      30.4783
    6.26022e-5      26.7234
    6.26184e-5      24.0475
    6.26347e-5      21.5218
      6.265e-5      19.2918
    6.26636e-5      17.4584
    6.26771e-5      15.7553
    6.26907e-5      14.1841
    6.26997e-5      13.2096
    6.27087e-5      12.2925
    6.27178e-5      11.4317
    6.27281e-5      10.5151
    6.27384e-5      9.66767
    6.27487e-5      8.88645
     6.2759e-5      8.16828
    6.27694e-5      7.50975
    6.27797e-5      6.90736
      6.279e-5      6.35751
    6.28003e-5      5.85662
      6.281e-5      5.42831
    6.28197e-5      5.03704
    6.28293e-5         4.68
     6.2839e-5      4.35451
    6.28487e-5        4.058
    6.28584e-5      3.78804
     6.2868e-5      3.54233
    6.28777e-5      3.31871
    6.28874e-5      3.11518
    6.28971e-5      2.92986
    6.29077e-5      2.74501
    6.29203e-5      2.54943
    6.29329e-5       2.3757
    6.29455e-5      2.22104
     6.2958e-5      2.08304
    6.29706e-5      1.95954
    6.29832e-5       1.8487
    6.29958e-5      1.74889
    6.30083e-5       1.6587
    6.30209e-5      1.57693
    6.30377e-5      1.47921
    6.30556e-5      1.38702
    6.30735e-5      1.30535
    6.30914e-5       1.2325
    6.31093e-5      1.16714
    6.31272e-5      1.10818
    6.31451e-5       1.0547
     6.3169e-5     0.990707
    6.31928e-5     0.933791
    6.32167e-5     0.882857
    6.32447e-5      0.82945
    6.32689e-5     0.788206
    6.32931e-5     0.750786
    6.33254e-5     0.706019
    6.33576e-5     0.666272
    6.33899e-5       0.6308
    6.34221e-5     0.598997
    6.34544e-5     0.570368
    6.34866e-5     0.544501
    6.35278e-5     0.514984
    6.35689e-5      0.48881
      6.361e-5     0.465498
    6.36511e-5     0.444653
    6.36922e-5      0.42595
    6.37334e-5     0.409117
    6.37882e-5     0.389195
     6.3843e-5     0.371756
    6.38979e-5     0.356442
    6.39582e-5     0.341708
     6.4024e-5     0.327805
    6.40898e-5     0.315851
    6.41556e-5     0.305585
    6.42213e-5     0.296798
    6.42871e-5     0.289324
    6.43858e-5     0.280281
    6.44516e-5     0.275547
    6.45341e-5     0.270941
    6.46165e-5     0.267712
     6.4699e-5     0.265798
    6.47815e-5     0.265173
    6.48623e-5     0.265816
    6.49432e-5     0.267737
    6.50241e-5     0.271003
    6.51049e-5     0.275723
    6.51858e-5     0.282051
    6.52571e-5      0.28914
    6.53238e-5      0.29721
    6.53903e-5     0.306901
    6.54569e-5     0.318502
    6.55235e-5     0.332428
    6.55679e-5     0.343302
    6.56187e-5      0.35769
    6.56567e-5     0.370191
    6.56948e-5     0.384537
    6.57328e-5     0.401174
    6.57709e-5     0.420641
    6.58039e-5     0.440276
    6.58369e-5     0.462902
    6.58698e-5     0.488884
    6.59028e-5     0.518488
    6.59292e-5     0.544858
    6.59556e-5     0.573581
    6.59942e-5     0.619514
    6.60348e-5     0.672229
    6.60855e-5     0.742905
    6.61464e-5     0.833059
    6.61951e-5     0.910563
    6.62276e-5     0.967204
     6.6258e-5      1.02646
    6.62844e-5      1.08496
    6.63047e-5      1.13614
     6.6325e-5      1.19424
    6.63453e-5      1.26099
    6.63605e-5      1.31796
    6.63778e-5      1.39112
    6.63949e-5      1.47445
    6.64097e-5      1.55682
    6.64245e-5      1.65032
    6.64396e-5      1.75834
    6.64497e-5      1.83941
    6.64598e-5      1.92823
    6.64698e-5      2.02566
    6.64805e-5      2.13853
    6.64911e-5      2.26318
    6.65017e-5      2.40091
    6.65123e-5      2.55321
     6.6523e-5      2.72166
    6.65336e-5      2.90802
    6.65442e-5      3.11418
    6.65548e-5       3.3422
    6.65655e-5      3.59428
    6.65761e-5      3.87276
    6.65867e-5      4.18014
    6.65973e-5      4.51905
     6.6608e-5      4.89221
    6.66186e-5      5.30243
    6.66292e-5      5.75263
    6.66398e-5       6.2457
    6.66494e-5      6.72854
    6.66589e-5      7.25055
    6.66696e-5      7.87898
    6.66802e-5      8.56089
     6.6689e-5      9.17304
    6.66982e-5      9.84964
    6.67099e-5      10.7743
    6.67216e-5      11.7729
    6.67322e-5      12.7457
    6.67429e-5       13.781
    6.67535e-5      14.8785
    6.67694e-5      16.6389
    6.67853e-5      18.5304
    6.68013e-5      20.5421
    6.68225e-5      23.3839
    6.68541e-5      27.8441
     6.6896e-5      33.8341
    6.69174e-5      36.7339
    6.69388e-5      39.4001
    6.69549e-5      41.1887
    6.69709e-5      42.7538
     6.6987e-5      44.0609
     6.7003e-5      45.0803
    6.70202e-5       45.824
    6.70373e-5      46.1938
    6.70451e-5      46.2351
    6.70598e-5      46.0961
    6.70715e-5      45.7817
    6.70887e-5      45.0111
    6.71047e-5      43.9682
    6.71208e-5      42.6399
    6.71368e-5      41.0563
    6.71529e-5       39.252
    6.71743e-5      36.5696
    6.71957e-5      33.6591
    6.72566e-5      24.9468
    6.72791e-5      21.8578
     6.7296e-5      19.6576
    6.73128e-5      17.5819
    6.73287e-5      15.7501
    6.73428e-5      14.2448
    6.73568e-5      12.8473
    6.73662e-5      11.9761
    6.73756e-5      11.1532
    6.73849e-5      10.3781
    6.73943e-5      9.64989
    6.74043e-5      8.92059
     6.7415e-5      8.19888
    6.74257e-5      7.53295
    6.74364e-5      6.92026
    6.74471e-5      6.35805
    6.74578e-5      5.84347
    6.74685e-5      5.37355
    6.74792e-5      4.94532
    6.74877e-5      4.63352
    6.74971e-5      4.31475
    6.75065e-5      4.02212
    6.75159e-5      3.75377
    6.75253e-5      3.50786
    6.75347e-5      3.28269
    6.75441e-5      3.07658
    6.75535e-5        2.888
    6.75629e-5      2.71547
    6.75723e-5      2.55762
    6.75817e-5      2.41316
    6.75936e-5      2.24663
    6.76025e-5      2.13506
    6.76157e-5      1.98387
     6.7629e-5      1.84985
    6.76423e-5      1.73077
    6.76555e-5      1.62469
    6.76688e-5       1.5299
     6.7682e-5      1.44495
    6.76953e-5      1.36854
    6.77086e-5      1.29958
    6.77218e-5      1.23713
     6.7737e-5      1.17269
    6.77531e-5      1.11123
    6.77692e-5      1.05598
    6.77853e-5      1.00607
    6.78014e-5     0.960804
     6.7821e-5     0.911156
    6.78387e-5     0.870697
    6.78576e-5     0.831325
    6.78778e-5     0.793249
     6.7898e-5     0.758667
    6.79283e-5     0.712318
    6.79587e-5      0.67145
     6.7989e-5     0.635017
    6.80213e-5     0.600112
    6.80607e-5     0.561996
    6.80961e-5     0.531132
    6.81365e-5     0.499052
    6.81769e-5     0.469923
    6.82173e-5     0.443464
    6.82618e-5     0.417247
    6.83022e-5       0.3959
    6.83439e-5     0.376212
    6.83855e-5     0.358697
    6.84133e-5     0.348116
    6.84638e-5     0.330865
    6.85144e-5     0.315821
    6.85649e-5     0.302607
    6.86337e-5     0.286995
    6.86886e-5     0.276152
    6.87619e-5     0.263517
    6.88352e-5     0.252609
    6.89084e-5     0.243141
    6.89979e-5     0.233201
    6.90874e-5     0.224765
     6.9177e-5     0.217587
    6.92665e-5     0.211475
    6.93858e-5     0.204725
    6.95034e-5     0.199395
    6.96209e-5     0.195185
    6.97665e-5     0.191394
    6.99071e-5     0.189236
    7.03139e-5     0.186914
    7.04028e-5     0.186641
     7.0551e-5     0.187092
    7.07043e-5     0.188725
    7.08899e-5     0.191948
    7.10493e-5     0.195801
    7.11502e-5     0.198987
    7.12458e-5     0.202937
    7.13387e-5     0.208106
    7.14423e-5     0.215608
    7.16845e-5     0.236096
    7.17589e-5     0.243745
    7.18226e-5     0.251895
    7.19579e-5     0.271953
    7.20084e-5     0.278009
    7.20546e-5     0.281675
    7.20953e-5     0.283175
    7.21155e-5     0.283324
    7.21661e-5     0.282244
    7.23115e-5     0.274884
    7.23775e-5     0.273441
    7.23829e-5     0.273426
    7.24366e-5     0.274143
     7.2501e-5     0.276882
    7.25692e-5     0.281502
     7.2645e-5     0.288054
     7.2746e-5     0.298322
    7.28647e-5     0.312065
    7.29835e-5     0.327501
    7.31022e-5     0.344747
    7.32209e-5      0.36402
    7.33362e-5     0.384936
    7.34514e-5     0.408351
    7.35666e-5     0.434659
    7.36531e-5     0.456573
    7.37458e-5     0.482458
    7.38416e-5     0.512173
    7.39375e-5     0.545353
    7.40333e-5     0.582554
    7.41292e-5     0.624457
    7.42225e-5     0.670554
    7.43106e-5      0.71982
    7.43694e-5     0.756243
    7.44282e-5     0.795949
     7.4501e-5     0.850363
    7.45739e-5     0.911486
    7.46454e-5     0.979228
    7.47144e-5        1.053
    7.47737e-5      1.12404
    7.48351e-5      1.20601
    7.48862e-5      1.28179
    7.49404e-5      1.37061
    7.49905e-5      1.46167
    7.50416e-5      1.56494
    7.50927e-5      1.68054
    7.51336e-5      1.78343
    7.51683e-5       1.8793
    7.52092e-5      2.00345
    7.52524e-5      2.14996
    7.52857e-5      2.27508
    7.53189e-5      2.41262
    7.53521e-5      2.56433
    7.53811e-5      2.70964
     7.5418e-5      2.91592
    7.54427e-5      3.06816
    7.54673e-5       3.2339
     7.5492e-5       3.4149
    7.55167e-5      3.61327
    7.55413e-5      3.83154
     7.5566e-5      4.07279
    7.55887e-5      4.31885
    7.56114e-5      4.59131
    7.56342e-5       4.8947
    7.56569e-5       5.2347
     7.5674e-5      5.51796
     7.5691e-5      5.82953
     7.5708e-5      6.17387
    7.57251e-5      6.55639
    7.57422e-5      6.98362
    7.57554e-5      7.35181
    7.57706e-5      7.81716
    7.57857e-5      8.33742
    7.58009e-5      8.92158
    7.58122e-5      9.40794
    7.58236e-5      9.94129
     7.5835e-5      10.5274
    7.58463e-5      11.1726
    7.58577e-5      11.8841
    7.58691e-5        12.67
    7.58807e-5      13.5592
    7.58923e-5      14.5457
    7.59039e-5      15.6409
    7.59156e-5      16.8572
    7.59254e-5      17.9934
    7.59353e-5      19.2353
    7.59418e-5      20.1266
    7.59519e-5      21.6046
     7.5962e-5       23.222
    7.59721e-5      24.9904
    7.59822e-5      26.9222
    7.59923e-5      29.0299
    7.60024e-5      31.3267
    7.60126e-5      33.8258
    7.60227e-5      36.5405
    7.60328e-5      39.4845
    7.60429e-5      42.6708
     7.6053e-5      46.1123
    7.60631e-5      49.8214
    7.60732e-5      53.8097
    7.60833e-5      58.0876
    7.60934e-5      62.6646
    7.61035e-5      67.5485
    7.61146e-5      73.2823
    7.61279e-5      80.6698
    7.61419e-5      88.9862
     7.6157e-5      98.7052
    7.61714e-5      108.573
    7.61863e-5      119.402
    7.62066e-5      134.983
    7.62318e-5      155.641
    7.62962e-5      210.552
     7.6319e-5      229.113
    7.63417e-5      246.256
    7.63588e-5      257.813
    7.63759e-5      267.981
     7.6393e-5      276.538
    7.64101e-5      283.291
    7.64254e-5      287.696
     7.6442e-5      290.563
    7.64576e-5      291.443
    7.64744e-5      290.377
    7.64869e-5      288.241
       7.65e-5      284.815
    7.65171e-5      278.594
    7.65342e-5      270.525
    7.65513e-5      260.792
    7.65684e-5      249.612
    7.65855e-5      237.225
    7.66082e-5       219.27
    7.66481e-5      185.617
    7.66851e-5      154.124
    7.67065e-5      136.696
    7.67244e-5      122.766
    7.67381e-5      112.681
    7.67517e-5      103.104
    7.67654e-5      94.0697
    7.67804e-5      84.8356
    7.67953e-5      76.2923
    7.68053e-5      70.9818
    7.68152e-5      65.9768
    7.68252e-5      61.2727
    7.68352e-5      56.8632
    7.68451e-5      52.7403
    7.68565e-5      48.3675
    7.68679e-5      44.3414
    7.68793e-5       40.645
    7.68907e-5      37.2604
    7.69021e-5      34.1688
    7.69106e-5      32.0311
    7.69192e-5      30.0396
    7.69277e-5      28.1862
    7.69362e-5      26.4631
    7.69469e-5      24.4807
    7.69576e-5      22.6752
    7.69683e-5      21.0325
    7.69789e-5      19.5391
    7.69896e-5      18.1822
    7.70003e-5      16.9499
     7.7011e-5      15.8309
    7.70217e-5      14.8147
    7.70323e-5      13.8916
     7.7043e-5      13.0527
    7.70548e-5      12.2173
     7.7064e-5      11.6172
    7.70779e-5      10.8029
    7.70918e-5      10.0796
    7.71057e-5      9.43536
    7.71195e-5      8.85993
    7.71334e-5       8.3443
    7.71473e-5       7.8807
    7.71612e-5       7.4624
    7.71751e-5      7.08361
    7.71889e-5      6.73937
    7.72044e-5      6.39096
    7.72231e-5      6.01354
    7.72418e-5      5.67636
    7.72605e-5      5.37347
    7.72792e-5      5.09995
    7.72978e-5       4.8518
    7.73228e-5      4.55478
    7.73477e-5      4.29073
    7.73726e-5      4.05466
    7.73975e-5      3.84259
    7.74242e-5      3.63835
    7.74509e-5      3.45475
    7.74776e-5      3.28913
    7.75043e-5      3.13933
    7.75399e-5      2.96107
    7.75754e-5      2.80415
     7.7611e-5       2.6657
    7.76466e-5      2.54339
    7.76822e-5      2.43529
    7.77178e-5      2.33982
    7.77534e-5      2.25568
     7.7789e-5      2.18176
    7.78246e-5      2.11717
     7.7878e-5      2.03615
    7.79314e-5      1.97247
    7.79669e-5      1.93891
    7.80104e-5      1.90705
    7.80539e-5      1.88489
    7.80974e-5      1.87221
    7.81408e-5      1.86899
    7.81971e-5      1.87914
    7.82346e-5      1.89524
    7.82721e-5      1.91925
    7.83096e-5      1.95169
    7.83471e-5      1.99325
    7.83846e-5      2.04482
    7.84221e-5      2.10748
    7.84579e-5      2.17892
     7.8492e-5       2.2589
    7.85261e-5      2.35219
    7.85602e-5      2.46081
    7.85942e-5      2.58733
    7.86198e-5      2.69591
    7.86454e-5      2.81814
    7.86709e-5      2.95618
    7.86965e-5      3.11275
    7.87202e-5      3.27736
    7.87402e-5      3.43307
    7.87601e-5       3.6072
      7.878e-5      3.80295
       7.88e-5      4.02429
    7.88199e-5      4.27619
    7.88332e-5      4.46407
    7.88465e-5      4.67043
    7.88598e-5      4.89779
    7.88731e-5      5.14908
    7.88864e-5      5.42766
    7.88997e-5      5.73743
     7.8913e-5      6.08282
    7.89263e-5      6.46893
    7.89386e-5      6.86649
    7.89508e-5      7.30882
    7.89631e-5      7.80167
    7.89754e-5      8.35145
    7.89877e-5      8.96525
    7.89999e-5       9.6509
    7.90122e-5       10.417
    7.90245e-5      11.2728
    7.90326e-5      11.8981
    7.90408e-5      12.5709
     7.9049e-5      13.2946
    7.90606e-5      14.4136
    7.90708e-5      15.4997
    7.90811e-5      16.6858
    7.90913e-5      17.9796
    7.91015e-5      19.3889
    7.91117e-5      20.9213
     7.9122e-5      22.5849
    7.91322e-5      24.3874
    7.91424e-5      26.3365
    7.91526e-5      28.4395
    7.91629e-5      30.7034
    7.91758e-5      33.8121
    7.91854e-5      36.2815
    7.91949e-5      38.9069
    7.92092e-5      43.1443
    7.92236e-5      47.7467
    7.92379e-5      52.7158
    7.92508e-5      57.5242
    7.92672e-5      64.0094
    7.92836e-5      70.9278
     7.9304e-5      80.1214
    7.93256e-5      90.3443
    7.93976e-5      126.016
    7.94194e-5      136.299
    7.94401e-5       145.36
    7.94608e-5      153.468
    7.94772e-5      159.033
    7.94936e-5      163.743
    7.95099e-5      167.502
    7.95246e-5      170.007
    7.95394e-5      171.638
    7.95573e-5      172.404
    7.95588e-5      172.406
    7.95765e-5      171.723
     7.9589e-5      170.447
     7.9607e-5      167.503
    7.96234e-5      163.747
    7.96397e-5      159.041
    7.96561e-5      153.481
    7.96725e-5      147.175
    7.96943e-5      137.815
    7.97161e-5      127.641
    7.97597e-5      106.064
    7.97952e-5        88.59
    7.98186e-5      77.5889
    7.98377e-5      69.1419
     7.9853e-5      62.7747
    7.98692e-5      56.4271
    7.98836e-5      51.2027
    7.98979e-5      46.3405
    7.99122e-5      41.8432
    7.99217e-5      39.0463
    7.99313e-5      36.4079
    7.99408e-5       33.925
    7.99531e-5      30.9549
    7.99654e-5      28.2258
    7.99746e-5      26.3306
    7.99838e-5      24.5598
     7.9993e-5      22.9079
    8.00022e-5      21.3697
    8.00114e-5      19.9393
    8.00206e-5      18.6112
    8.00298e-5      17.3797
     8.0039e-5      16.2392
    8.00472e-5      15.2972
    8.00554e-5      14.4189
    8.00636e-5      13.6006
    8.00717e-5      12.8386
    8.00799e-5      12.1294
    8.00881e-5      11.4696
    8.00963e-5      10.8561
    8.01085e-5      10.0157
    8.01208e-5      9.26256
    8.01331e-5      8.58756
    8.01454e-5      7.98239
    8.01576e-5      7.43945
    8.01699e-5      6.95186
    8.01795e-5      6.60687
    8.01938e-5      6.13932
    8.02081e-5      5.72463
    8.02224e-5      5.35573
    8.02367e-5      5.02652
    8.02511e-5      4.73169
    8.02654e-5      4.46668
    8.02797e-5      4.22756
     8.0294e-5      4.01096
    8.03036e-5      3.87762
    8.03226e-5      3.63418
    8.03405e-5      3.43037
    8.03584e-5      3.24666
    8.03763e-5      3.08019
    8.03942e-5      2.92861
    8.04181e-5      2.74634
     8.0442e-5      2.58339
    8.04658e-5      2.43679
    8.04897e-5      2.30417
    8.05135e-5      2.18363
    8.05442e-5      2.04392
    8.05749e-5      1.91891
    8.06056e-5      1.80647
    8.06363e-5      1.70485
     8.0667e-5      1.61263
    8.06976e-5      1.52862
    8.07283e-5      1.45184
     8.0759e-5      1.38143
    8.07999e-5      1.29624
    8.08408e-5       1.2197
    8.08817e-5      1.15063
    8.09226e-5      1.08805
    8.09635e-5      1.03115
    8.10045e-5      0.97923
    8.10454e-5     0.931708
    8.10863e-5     0.888084
     8.1145e-5     0.831396
    8.12038e-5     0.780813
    8.12626e-5     0.735466
    8.13213e-5     0.694644
    8.13801e-5     0.657752
    8.14388e-5     0.624294
    8.14976e-5     0.593853
    8.15564e-5     0.566072
    8.16195e-5     0.538836
    8.16827e-5     0.514003
    8.17774e-5     0.480674
    8.18721e-5     0.451387
    8.19668e-5     0.425541
    8.20616e-5     0.402656
    8.21714e-5     0.379335
    8.22813e-5     0.359105
    8.23798e-5       0.3435
    8.24556e-5     0.333259
    8.25314e-5     0.324809
    8.26122e-5     0.318049
     8.2688e-5     0.313818
    8.30133e-5     0.303251
    8.30436e-5     0.302931
    8.30841e-5     0.303788
    8.31144e-5     0.305941
    8.31447e-5     0.309996
    8.31674e-5     0.314697
    8.31861e-5     0.319898
    8.32048e-5     0.326539
    8.32235e-5     0.334864
    8.32408e-5     0.344318
    8.32581e-5     0.355677
    8.32755e-5     0.369184
    8.32928e-5     0.385087
    8.33101e-5     0.403639
    8.33275e-5     0.425085
    8.33448e-5     0.449659
    8.33621e-5     0.477567
    8.33773e-5     0.504989
    8.33926e-5     0.535205
    8.34078e-5     0.568262
     8.3423e-5     0.604164
    8.34383e-5     0.642864
    8.34611e-5     0.705911
    8.34839e-5      0.77438
    8.35073e-5     0.848967
    8.35875e-5      1.11817
     8.3618e-5      1.21304
    8.36383e-5      1.26976
    8.36586e-5      1.31941
    8.36789e-5      1.36055
    8.36992e-5      1.39195
    8.37195e-5      1.41262
    8.37358e-5      1.42098
    8.37473e-5      1.42238
    8.37672e-5      1.41588
    8.37804e-5      1.40542
    8.38007e-5       1.3801
     8.3821e-5      1.34429
    8.38413e-5      1.29904
    8.38616e-5      1.24563
    8.38819e-5      1.18556
    8.39124e-5      1.08642
    8.39881e-5     0.825271
    8.40101e-5     0.752607
    8.40322e-5      0.68401
      8.405e-5     0.632375
    8.40678e-5     0.584262
    8.40855e-5     0.539867
    8.41033e-5     0.499278
    8.41211e-5     0.462488
    8.41344e-5     0.437339
    8.41477e-5     0.414218
     8.4161e-5     0.393047
    8.41744e-5     0.373735
    8.41871e-5     0.356977
    8.41998e-5     0.341719
    8.42124e-5     0.327864
    8.42315e-5     0.309495
    8.42505e-5      0.29373
    8.42696e-5     0.280248
    8.42886e-5     0.268748
    8.43076e-5      0.25895
    8.43267e-5     0.250604
    8.43521e-5     0.241353
    8.43774e-5     0.233838
      8.441e-5     0.226144
    8.44427e-5     0.220101
    8.44861e-5     0.213857
    8.45296e-5     0.209044
    8.45948e-5     0.203555
    8.46383e-5      0.20068
    8.47253e-5     0.196205
    8.48011e-5     0.193371
    8.48768e-5     0.191445
    8.49488e-5     0.190597
    8.49703e-5     0.190574
    8.50347e-5     0.191306
    8.50991e-5     0.193516
    8.51421e-5     0.195972
     8.5185e-5      0.19929
    8.52466e-5      0.20557
    8.53073e-5     0.213317
    8.54124e-5     0.229027
    8.54952e-5     0.241097
    8.55452e-5     0.246908
    8.55822e-5     0.249954
    8.56231e-5     0.251713
    8.56384e-5     0.251882
    8.56752e-5     0.251117
     8.5713e-5     0.248601
    8.57478e-5     0.244842
    8.57887e-5     0.238929
      8.585e-5     0.228084
    8.59384e-5     0.211774
     8.5989e-5     0.203731
    8.60274e-5      0.19868
    8.60657e-5     0.194603
     8.6104e-5     0.191465
    8.61577e-5     0.188457
    8.62091e-5     0.186791
    8.62812e-5     0.185856
    8.63172e-5     0.185816
    8.64183e-5     0.186687
    8.65193e-5     0.188633
    8.66507e-5     0.192485
    8.68719e-5      0.19995
    8.70387e-5     0.203737
    8.71786e-5     0.206735
    8.73276e-5     0.211386
    8.74943e-5     0.218447
    8.76914e-5     0.228642
    8.78808e-5     0.240186
    8.80703e-5     0.253625
    8.81965e-5     0.263782
    8.83242e-5      0.27515
    8.84519e-5     0.287758
    8.85795e-5     0.301762
    8.87072e-5     0.317345
    8.88267e-5     0.333556
    8.89462e-5     0.351551
    8.90657e-5     0.371581
    8.91852e-5     0.393949
    8.92861e-5     0.414936
     8.9387e-5     0.438147
     8.9472e-5     0.459681
     8.9557e-5     0.483287
    8.96674e-5     0.517453
    8.97737e-5     0.554362
    8.98767e-5     0.594314
    8.99776e-5     0.637994
    9.00626e-5     0.678994
    9.01157e-5     0.706942
    9.01943e-5     0.752107
     9.0258e-5     0.792498
    9.03218e-5     0.836712
    9.03895e-5     0.888402
    9.04652e-5      0.95271
    9.05409e-5      1.02498
    9.05926e-5       1.0797
    9.06457e-5      1.14088
    9.06989e-5      1.20783
     9.0752e-5      1.28128
    9.08051e-5      1.36212
    9.08582e-5      1.45139
    9.09113e-5      1.55032
    9.09644e-5      1.66041
    9.10095e-5      1.76399
    9.10466e-5      1.85711
    9.10838e-5      1.95828
    9.11209e-5      2.06847
     9.1158e-5      2.18884
    9.11951e-5      2.32072
    9.12322e-5      2.46568
    9.12693e-5       2.6256
     9.1303e-5      2.78559
    9.13333e-5      2.94305
    9.13635e-5      3.11524
    9.13938e-5      3.30418
    9.14241e-5      3.51229
    9.14544e-5      3.74248
    9.14846e-5      3.99831
    9.15149e-5      4.28419
    9.15414e-5      4.56334
    9.15641e-5      4.82783
    9.15868e-5      5.11941
    9.16095e-5      5.44257
    9.16322e-5      5.80288
    9.16492e-5      6.10159
    9.16663e-5      6.42862
    9.16833e-5      6.78822
    9.17003e-5      7.18543
    9.17166e-5      7.60567
    9.17314e-5      8.02648
    9.17461e-5      8.49065
    9.17609e-5      9.00451
    9.17756e-5      9.57544
    9.17904e-5      10.2119
    9.18052e-5      10.9238
    9.18199e-5      11.7224
    9.18347e-5      12.6205
    9.18445e-5      13.2818
    9.18543e-5      13.9986
    9.18642e-5      14.7763
    9.18767e-5      15.8598
     9.1888e-5      16.9483
    9.18994e-5       18.146
    9.19107e-5      19.4641
    9.19221e-5      20.9145
    9.19334e-5        22.51
    9.19448e-5      24.2643
    9.19561e-5      26.1917
    9.19675e-5      28.3075
    9.19788e-5      30.6274
    9.19902e-5      33.1678
    9.19993e-5      35.3703
    9.20084e-5      37.7336
    9.20205e-5        41.15
    9.20326e-5      44.8889
    9.20447e-5      48.9713
    9.20568e-5      53.4174
    9.20689e-5      58.2464
     9.2081e-5      63.4763
    9.20924e-5      68.7579
     9.2103e-5      74.0284
    9.21136e-5      79.6361
    9.21241e-5      85.5868
      9.214e-5      95.1636
    9.21559e-5      105.523
    9.21718e-5      116.653
    9.21864e-5      127.481
    9.22009e-5      138.898
    9.22227e-5      157.023
    9.22481e-5      179.425
    9.23268e-5      251.941
     9.2351e-5      273.065
    9.23753e-5      292.486
    9.23934e-5      305.535
    9.24116e-5      316.989
    9.24297e-5      326.609
    9.24479e-5       334.19
    9.24679e-5      339.978
    9.24818e-5      342.349
    9.24983e-5      343.341
    9.25145e-5      342.382
    9.25278e-5       340.17
    9.25472e-5       334.72
    9.25654e-5      327.321
    9.25835e-5      317.872
    9.26017e-5      306.577
    9.26199e-5      293.672
    9.26441e-5      274.415
    9.26683e-5      253.423
    9.27228e-5      203.275
    9.27543e-5      174.586
    9.27755e-5      156.105
    9.27945e-5      140.293
    9.28136e-5      125.405
    9.28295e-5      113.777
    9.28454e-5      102.901
    9.28613e-5      92.7984
    9.28719e-5      86.4977
    9.28825e-5      80.5435
    9.28931e-5      74.9324
    9.29044e-5      69.2948
    9.29165e-5       63.698
    9.29286e-5      58.5179
    9.29407e-5      53.7388
    9.29529e-5       49.343
     9.2965e-5      45.3118
    9.29771e-5      41.6255
    9.29892e-5      38.2638
    9.29991e-5      35.7349
    9.30107e-5      33.0186
    9.30224e-5      30.5498
     9.3034e-5      28.3114
    9.30456e-5      26.2866
    9.30573e-5      24.4595
    9.30689e-5      22.8147
    9.30805e-5      21.3382
    9.30921e-5      20.0163
    9.31038e-5      18.8366
    9.31154e-5      17.7875
    9.31247e-5      17.0347
    9.31356e-5      16.2466
    9.31464e-5       15.549
    9.31573e-5      14.9349
    9.31682e-5      14.3984
     9.3179e-5      13.9336
    9.31899e-5      13.5356
    9.32008e-5      13.1996
    9.32116e-5      12.9214
    9.32225e-5      12.6971
    9.32388e-5      12.4543
    9.32551e-5      12.3142
    9.32714e-5      12.2672
    9.32877e-5      12.3044
    9.33033e-5      12.4117
    9.33238e-5      12.6453
    9.33463e-5       13.007
    9.33708e-5      13.5018
    9.33984e-5      14.1474
    9.34649e-5      15.8201
    9.34956e-5      16.5088
     9.3516e-5      16.8938
    9.35365e-5      17.2001
    9.35569e-5      17.4134
    9.35774e-5      17.5222
    9.35873e-5      17.5348
      9.361e-5      17.4605
    9.36275e-5      17.3037
    9.36489e-5      16.9936
    9.36694e-5      16.5821
    9.36898e-5      16.0653
    9.37103e-5      15.4539
    9.37307e-5       14.761
    9.37614e-5      13.6021
    9.37921e-5      12.3483
    9.38583e-5      9.57279
    9.38836e-5      8.56346
    9.39066e-5      7.69729
    9.39296e-5      6.89071
    9.39449e-5       6.3896
    9.39603e-5       5.9193
    9.39756e-5      5.48045
     9.3991e-5      5.07315
     9.4005e-5      4.72723
    9.40178e-5      4.43505
    9.40306e-5      4.16349
    9.40434e-5      3.91182
    9.40561e-5       3.6792
    9.40689e-5       3.4647
    9.40817e-5      3.26735
    9.40945e-5      3.08612
    9.41073e-5      2.91996
      9.412e-5      2.76783
    9.41328e-5       2.6287
    9.41456e-5      2.50153
    9.41584e-5      2.38537
    9.41712e-5      2.27926
    9.41903e-5      2.13702
    9.42031e-5      2.05227
    9.42204e-5      1.94908
    9.42376e-5      1.85727
    9.42549e-5      1.77531
    9.42721e-5      1.70186
     9.4298e-5      1.60512
    9.43239e-5      1.52161
    9.43498e-5      1.44868
    9.43757e-5      1.38425
    9.44102e-5       1.3088
    9.44447e-5      1.24272
    9.44792e-5      1.18395
    9.45175e-5      1.12547
    9.45559e-5      1.07278
     9.4607e-5      1.00982
    9.46581e-5     0.953669
    9.47093e-5     0.903112
    9.47604e-5      0.85727
    9.48115e-5     0.815466
    9.48626e-5     0.777163
    9.49233e-5     0.735631
    9.49936e-5     0.692179
    9.50639e-5     0.653008
    9.51342e-5     0.617528
    9.52045e-5     0.585259
    9.52748e-5     0.555801
    9.53451e-5     0.528818
    9.54506e-5     0.492371
    9.55462e-5     0.462922
    9.56418e-5     0.436405
    9.57374e-5     0.412439
     9.5833e-5     0.390705
    9.59286e-5     0.370936
    9.60242e-5     0.352906
    9.61198e-5     0.336421
    9.62154e-5     0.321315
    9.63352e-5     0.304126
    9.64549e-5     0.288632
    9.65747e-5     0.274628
    9.66944e-5     0.261938
    9.68141e-5     0.250418
    9.69937e-5     0.235063
    9.71733e-5     0.221718
    9.73628e-5     0.209526
    9.75522e-5     0.199032
    9.77354e-5     0.190335
    9.79059e-5     0.183457
    9.80195e-5     0.179589
    9.81332e-5     0.176556
    9.82052e-5     0.175381
    9.82532e-5     0.175137
    9.83012e-5     0.175522
    9.83555e-5     0.176987
     9.8401e-5     0.179283
    9.84464e-5     0.182728
    9.84944e-5     0.187691
    9.85424e-5     0.193925
    9.86748e-5     0.214023
    9.87152e-5     0.219235
    9.87551e-5     0.223045
    9.87906e-5     0.224968
    9.88171e-5      0.22538
      9.885e-5     0.224604
    9.88862e-5     0.222147
     9.8918e-5     0.218706
    9.89605e-5     0.212601
    9.90243e-5     0.201392
    9.90997e-5     0.187518
    9.91501e-5     0.179189
     9.9188e-5      0.17381
    9.92272e-5     0.169125
     9.9267e-5     0.165273
    9.93068e-5     0.162265
    9.93599e-5     0.159364
     9.9413e-5     0.157449
    9.94768e-5     0.156064
     9.9583e-5     0.155094
    9.96428e-5     0.154985
    9.97623e-5     0.155346
    9.99415e-5     0.156983
   0.000100061     0.158747
   0.000100207      0.16167
   0.000100353     0.165528
   0.000100499      0.17046
   0.000100645     0.176657
   0.000100742       0.1816
    0.00010084     0.187311
   0.000100937     0.193913
   0.000101034     0.201559
   0.000101131     0.210446
   0.000101228     0.220826
   0.000101301     0.229785
   0.000101374     0.239943
   0.000101454     0.252828
   0.000101518     0.264532
   0.000101582     0.277794
   0.000101646     0.292911
   0.000101694      0.30569
   0.000101742      0.31992
    0.00010179     0.335845
   0.000101838     0.353765
   0.000101886     0.374059
   0.000101934     0.397208
   0.000101967     0.415489
   0.000102001     0.435756
   0.000102035     0.458352
   0.000102068     0.483709
   0.000102102     0.512386
   0.000102127     0.536505
   0.000102152     0.563297
   0.000102178     0.593265
   0.000102203     0.627045
   0.000102224     0.658159
   0.000102244     0.692945
   0.000102265     0.732101
   0.000102286     0.776481
   0.000102306     0.827143
    0.00010232     0.865032
   0.000102334     0.906734
   0.000102348     0.952761
   0.000102362       1.0037
   0.000102375      1.06021
   0.000102389      1.12305
   0.000102403      1.19306
   0.000102417      1.27118
   0.000102428      1.34397
   0.000102442      1.44235
   0.000102457      1.55276
   0.000102471      1.67667
    0.00010248       1.7676
    0.00010249       1.8658
   0.000102499       1.9718
   0.000102508      2.08621
   0.000102518       2.2096
   0.000102527      2.34262
   0.000102537       2.4859
   0.000102546      2.64016
   0.000102555      2.80604
   0.000102565      2.98427
   0.000102578      3.24721
   0.000102588      3.47299
   0.000102598      3.71582
   0.000102608      3.97656
   0.000102618      4.25612
   0.000102628      4.55528
   0.000102642      4.98621
   0.000102655      5.45529
   0.000102669      5.96419
   0.000102682       6.5142
   0.000102693      6.98462
   0.000102709      7.74165
   0.000102725      8.56075
   0.000102741      9.44164
   0.000102757      10.3826
   0.000102776      11.5527
   0.000102792      12.6127
   0.000102817      14.2881
   0.000102843      16.2018
   0.000102906      20.8843
   0.000102938      23.1572
    0.00010296      24.5477
   0.000102981      25.7987
   0.000103003      26.8781
   0.000103024      27.7572
   0.000103041      28.2704
   0.000103056      28.6284
   0.000103076      28.9185
   0.000103091      28.9842
   0.000103107      28.9162
   0.000103126      28.6598
   0.000103145      28.1949
   0.000103163      27.5878
   0.000103182      26.8095
   0.000103202      25.7787
   0.000103224      24.4861
   0.000103247      22.9802
   0.000103278      20.8485
   0.000103354      15.2669
   0.000103379      13.4891
   0.000103399      12.1389
   0.000103418      10.9592
   0.000103435      9.94038
   0.000103452      8.98829
   0.000103465      8.31946
   0.000103478      7.69003
    0.00010349      7.11104
   0.000103503       6.5696
   0.000103516      6.06503
   0.000103528      5.59646
   0.000103541       5.1627
   0.000103554      4.76251
   0.000103566      4.39436
   0.000103579      4.05673
   0.000103591      3.74788
   0.000103604      3.46617
   0.000103617      3.20983
   0.000103629      2.97716
   0.000103642      2.76641
   0.000103655      2.57594
   0.000103667      2.40412
    0.00010368      2.24941
   0.000103693      2.11032
   0.000103705      1.98548
   0.000103718      1.87356
    0.00010373      1.77337
   0.000103743      1.68375
   0.000103756      1.60368
   0.000103768      1.53221
   0.000103781      1.46846
   0.000103795      1.40431
    0.00010381       1.3481
   0.000103824      1.29888
   0.000103838      1.25584
   0.000103853      1.21825
   0.000103874      1.17074
   0.000103896      1.13232
   0.000103917      1.10152
   0.000103939      1.07719
   0.000103953       1.0641
   0.000103982      1.04442
   0.000104011       1.0323
   0.000104042      1.02653
   0.000104053      1.02615
   0.000104088      1.03036
   0.000104119      1.04051
    0.00010415      1.05646
   0.000104181       1.0782
   0.000104212      1.10586
   0.000104243      1.13975
   0.000104276      1.18294
   0.000104302      1.22296
   0.000104328       1.2687
   0.000104354      1.32086
    0.00010438      1.38028
   0.000104406      1.44807
   0.000104432      1.52563
   0.000104458      1.61477
   0.000104476      1.68177
   0.000104493       1.7558
    0.00010451       1.8379
   0.000104528      1.92928
   0.000104548      2.05082
   0.000104566      2.16996
   0.000104583      2.30457
   0.000104601      2.45735
   0.000104613      2.57082
   0.000104624       2.6948
   0.000104636      2.83049
   0.000104648      2.97921
    0.00010466      3.14242
   0.000104671      3.32174
   0.000104683      3.51894
   0.000104695      3.73597
   0.000104707      3.97497
   0.000104718      4.23825
   0.000104728      4.48087
    0.00010474      4.80513
   0.000104752      5.16334
   0.000104764      5.55885
   0.000104776      5.99532
   0.000104789      6.47651
   0.000104801      7.00662
   0.000104813      7.58972
   0.000104825      8.23032
   0.000104837      8.93289
   0.000104849      9.70219
    0.00010486      10.4458
    0.00010487      11.1972
    0.00010488      12.0036
    0.00010489      12.8682
     0.0001049      13.7931
   0.000104913      15.1248
   0.000104927       16.574
    0.00010494      18.1457
   0.000104954       19.844
   0.000104966      21.4837
   0.000104982      23.8364
   0.000104998      26.3812
   0.000105014      29.1163
    0.00010503      32.0376
   0.000105046      35.1362
   0.000105062      38.4008
   0.000105087      43.5708
   0.000105117       50.482
   0.000105184      65.9347
   0.000105214      72.5251
    0.00010524      77.6757
   0.000105262      81.6567
   0.000105283      84.7377
   0.000105301      87.0129
   0.000105317      88.6054
   0.000105333      89.7833
   0.000105349      90.5104
   0.000105368      90.8343
   0.000105389      90.4559
   0.000105409      89.3854
   0.000105426      87.9176
   0.000105444      86.0096
   0.000105463       83.356
   0.000105486       79.656
    0.00010551       74.977
   0.000105538      69.0857
   0.000105577       60.319
    0.00010563       48.047
   0.000105656      42.2249
   0.000105678      37.6202
   0.000105695      34.0708
   0.000105714      30.5449
   0.000105728       28.062
   0.000105742      25.7223
   0.000105756      23.5286
   0.000105772      21.2934
   0.000105784      19.6654
   0.000105796       18.142
   0.000105808      16.7208
    0.00010582      15.3987
   0.000105832      14.1722
   0.000105844      13.0374
   0.000105856      11.9902
   0.000105867      11.1812
   0.000105879      10.2827
   0.000105891       9.4588
   0.000105903      8.70485
   0.000105915      8.01611
   0.000105927      7.38809
   0.000105939      6.81609
   0.000105951      6.29599
   0.000105963      5.82354
   0.000105975       5.3948
   0.000105987      5.00597
   0.000105996      4.74388
   0.000106006      4.47854
   0.000106016      4.23339
   0.000106025      4.00689
   0.000106035      3.79759
   0.000106045      3.60414
   0.000106059      3.34097
   0.000106074      3.10673
   0.000106088      2.89795
   0.000106103      2.71152
   0.000106117       2.5447
   0.000106132      2.39507
   0.000106146      2.26052
   0.000106165      2.10916
   0.000106183       1.9757
   0.000106201      1.85743
    0.00010622      1.75211
   0.000106238      1.65789
   0.000106256      1.57321
   0.000106275       1.4968
   0.000106293      1.42762
   0.000106318      1.34512
   0.000106342      1.27229
   0.000106369      1.20271
   0.000106395       1.1418
   0.000106422      1.08865
   0.000106448      1.04258
   0.000106475      1.00306
   0.000106501      0.96971
   0.000106528     0.942209
   0.000106555     0.920272
   0.000106581     0.903534
   0.000106608     0.891787
   0.000106626     0.886533
   0.000106661     0.881561
    0.00010667     0.881347
   0.000106711     0.884558
   0.000106818     0.907411
   0.000106861     0.912011
   0.000106866     0.912083
   0.000106894     0.910103
   0.000106923     0.903417
   0.000106943      0.89557
   0.000106973      0.87905
      0.000107     0.858899
   0.000107029     0.832039
   0.000107058     0.800962
   0.000107088     0.763408
   0.000107129     0.708482
   0.000107217     0.585272
   0.000107251     0.539415
    0.00010728     0.504202
   0.000107308      0.47165
   0.000107336      0.44201
   0.000107365     0.415391
   0.000107393     0.391765
   0.000107421     0.371012
   0.000107449      0.35294
   0.000107478     0.337317
   0.000107506     0.323896
   0.000107534     0.312438
   0.000107566     0.301527
   0.000107598     0.292582
   0.000107631     0.285386
   0.000107663     0.279775
   0.000107695     0.275637
   0.000107727     0.272895
   0.000107759     0.271491
    0.00010778     0.271267
   0.000107812     0.271945
   0.000107855     0.274559
   0.000107912     0.280371
    0.00010801     0.292421
    0.00010805     0.296136
   0.000108091     0.298025
   0.000108101      0.29814
   0.000108131     0.297509
    0.00010816     0.295438
   0.000108195     0.290983
   0.000108232     0.284077
   0.000108273      0.27423
   0.000108313     0.262558
   0.000108434     0.223819
   0.000108484      0.20898
   0.000108521     0.199056
   0.000108559     0.190321
   0.000108584     0.185169
   0.000108621     0.178557
   0.000108657     0.172964
   0.000108694      0.16826
   0.000108749     0.162563
   0.000108804     0.158098
   0.000108877     0.153438
    0.00010895     0.149719
    0.00010906     0.145189
    0.00010917     0.141468
   0.000109306     0.137671
   0.000109443     0.134646
   0.000109579      0.13237
   0.000109715      0.13102
   0.000109761     0.130881
   0.000109829     0.131158
   0.000109897     0.132335
   0.000109949      0.13416
    0.00010999     0.136414
   0.000110031     0.139571
   0.000110062     0.142636
   0.000110093     0.146369
   0.000110124     0.150811
   0.000110155     0.155972
   0.000110196     0.163919
   0.000110237     0.172888
   0.000110335     0.195783
   0.000110377     0.204851
   0.000110409     0.210615
   0.000110441      0.21515
    0.00011047     0.217974
   0.000110491     0.219237
   0.000110514     0.219705
   0.000110542     0.219072
   0.000110568     0.217293
     0.0001106      0.21371
   0.000110632     0.208767
   0.000110675     0.200549
   0.000110802     0.172089
   0.000110841     0.164053
    0.00011088     0.157019
    0.00011092     0.151128
   0.000110959     0.146402
   0.000110996     0.142953
   0.000111034     0.140376
   0.000111084     0.138033
   0.000111135     0.136752
   0.000111203     0.136203
   0.000111271     0.136522
   0.000111372     0.137956
   0.000111508     0.140925
   0.000111632     0.144414
   0.000111802     0.150264
   0.000111916     0.154886
    0.00011203      0.16014
   0.000112143     0.166095
   0.000112257     0.172833
    0.00011237     0.180459
   0.000112484     0.189095
   0.000112616     0.200667
   0.000112705      0.20941
   0.000112793     0.219102
   0.000112881     0.229882
    0.00011297     0.241925
   0.000113058     0.255469
   0.000113147     0.270839
   0.000113224      0.28618
   0.000113291     0.301041
   0.000113358      0.31763
   0.000113425     0.336095
   0.000113486     0.354698
   0.000113555     0.377339
   0.000113635     0.406831
   0.000113711     0.437324
   0.000113781     0.468331
   0.000113842     0.498252
   0.000113904     0.532886
   0.000113955     0.564399
   0.000114006     0.599632
   0.000114059     0.641453
   0.000114098     0.675687
   0.000114138     0.713393
   0.000114177     0.755031
   0.000114216     0.801141
   0.000114255     0.852372
   0.000114294     0.909514
   0.000114333     0.973542
   0.000114368       1.0369
   0.000114398      1.09798
   0.000114428      1.16552
   0.000114458      1.24059
   0.000114488      1.32454
   0.000114511      1.39435
   0.000114534      1.47101
   0.000114556      1.55563
   0.000114579      1.64957
     0.0001146      1.74734
   0.000114618      1.84055
   0.000114636      1.94346
   0.000114655       2.0576
   0.000114673      2.18486
   0.000114691      2.32741
   0.000114709      2.48794
   0.000114727      2.66951
   0.000114739      2.80406
   0.000114752      2.95085
   0.000114764      3.11125
   0.000114776      3.28682
   0.000114788      3.47925
   0.000114802      3.72223
   0.000114816      3.99277
    0.00011483      4.29436
   0.000114843      4.63078
   0.000114857      5.00624
   0.000114871      5.42531
    0.00011488      5.73135
    0.00011489      6.06058
   0.000114899      6.41458
   0.000114908      6.79517
   0.000114917      7.20408
   0.000114927      7.64324
   0.000114939      8.29773
    0.00011495      8.87633
    0.00011496      9.50101
    0.00011497      10.1746
    0.00011498      10.9002
   0.000114991      11.6807
   0.000115001      12.5194
   0.000115011      13.4191
   0.000115021      14.3829
   0.000115032      15.4137
   0.000115045      16.8972
   0.000115058      18.3441
    0.00011507      19.9011
   0.000115082       21.572
   0.000115095      23.3601
   0.000115107      25.2681
   0.000115119      27.2977
   0.000115132        29.45
   0.000115149      32.6426
   0.000115163      35.5045
   0.000115182      39.5679
   0.000115202      43.8978
   0.000115221      48.4683
    0.00011525      55.9106
   0.000115305      70.3894
    0.00011534      79.5748
    0.00011537      86.8799
   0.000115396      92.7852
    0.00011542      97.5362
   0.000115435      100.163
   0.000115457      103.306
   0.000115479       105.66
     0.0001155       107.11
   0.000115516      107.689
   0.000115527      107.792
   0.000115545      107.486
   0.000115563      106.568
   0.000115576      105.575
   0.000115598      103.186
   0.000115617      100.363
   0.000115639      96.5537
   0.000115663      91.6547
    0.00011569      85.6279
   0.000115722      77.3868
     0.0001158      56.9367
    0.00011583      49.3204
   0.000115855       43.446
   0.000115874      39.1515
   0.000115893      35.1246
   0.000115907      32.2902
   0.000115922      29.6202
   0.000115934      27.4634
   0.000115946       25.429
   0.000115959      23.5157
   0.000115971      21.7219
   0.000115983      20.0449
   0.000115996      18.4816
   0.000116008      17.0283
    0.00011602      15.6807
   0.000116032      14.5341
   0.000116043      13.4688
   0.000116054      12.4809
   0.000116066      11.5664
   0.000116077      10.7211
   0.000116088      9.94118
   0.000116099      9.22254
   0.000116111      8.56139
   0.000116122      7.95368
   0.000116133      7.39589
   0.000116146      6.83997
   0.000116155      6.44275
   0.000116165      6.07413
   0.000116174      5.73218
   0.000116184      5.41506
   0.000116194      5.12102
   0.000116203      4.84843
   0.000116213      4.59573
   0.000116227      4.25076
   0.000116241      3.94263
   0.000116256      3.66723
    0.00011627      3.42073
   0.000116285      3.19985
     0.0001163      2.98594
   0.000116312      2.83728
   0.000116324      2.70092
   0.000116342       2.5168
    0.00011636      2.35394
   0.000116378      2.20925
   0.000116396      2.08009
   0.000116414      1.96424
   0.000116432      1.85983
    0.00011645      1.76528
   0.000116462      1.70708
   0.000116486      1.60072
   0.000116509      1.50912
   0.000116532      1.42662
   0.000116555       1.3519
   0.000116578      1.28387
   0.000116609      1.20207
    0.00011664      1.12895
   0.000116671      1.06318
   0.000116702      1.00372
   0.000116732     0.949718
   0.000116763     0.900475
   0.000116794     0.855419
   0.000116835     0.801021
   0.000116876     0.752248
   0.000116917     0.708322
   0.000116958     0.668599
   0.000116999     0.632545
    0.00011704     0.599709
   0.000117088     0.564965
   0.000117143     0.529341
   0.000117198     0.497477
   0.000117253     0.468855
   0.000117308     0.443048
   0.000117362     0.419697
   0.000117417     0.398501
   0.000117472     0.379205
   0.000117532     0.359822
   0.000117599     0.340652
   0.000117665     0.323369
   0.000117731     0.307739
   0.000117798     0.293565
   0.000117864     0.280677
   0.000117963     0.263449
   0.000118057     0.249188
    0.00011814     0.238009
    0.00011825     0.224827
    0.00011836     0.213339
   0.000118471     0.203308
   0.000118581     0.194548
   0.000118691     0.186934
   0.000118801     0.180436
   0.000118884     0.176381
   0.000118957     0.173559
   0.000119024     0.171761
   0.000119092      0.17101
    0.00011916     0.171531
   0.000119228     0.173418
   0.000119283     0.175883
    0.00011943     0.183596
   0.000119494     0.185667
   0.000119536     0.186036
   0.000119581     0.185379
   0.000119625     0.183615
   0.000119668     0.180997
   0.000119732     0.175745
   0.000119859       0.1636
   0.000119911     0.159098
   0.000119964     0.155364
   0.000120016     0.152546
   0.000120062     0.150878
    0.00012012     0.149848
   0.000120143     0.149762
     0.0001202     0.150357
   0.000120257     0.152071
   0.000120314     0.154854
   0.000120371      0.15857
    0.00012053     0.170991
    0.00012059      0.17478
    0.00012063     0.176482
   0.000120676     0.177485
   0.000120696     0.177583
   0.000120752      0.17681
   0.000120813      0.17449
   0.000120983     0.164948
   0.000121053     0.162062
   0.000121105     0.160755
   0.000121166     0.160203
   0.000121226     0.160612
     0.0001213     0.162187
   0.000121379     0.164884
   0.000121457     0.168434
   0.000121535     0.172749
   0.000121614     0.177836
   0.000121692     0.183781
    0.00012177     0.190729
   0.000121848     0.198884
   0.000121917     0.207205
   0.000121975     0.215392
   0.000122033     0.224788
   0.000122092     0.235654
   0.000122136     0.244976
   0.000122179     0.255511
   0.000122223      0.26751
   0.000122267     0.281301
   0.000122311     0.297335
    0.00012234     0.309571
    0.00012237     0.324063
   0.000122402     0.341463
   0.000122427      0.35634
   0.000122451     0.373128
   0.000122475     0.392228
   0.000122499     0.414143
   0.000122523     0.439504
   0.000122539     0.458707
   0.000122555     0.480069
   0.000122571     0.503913
   0.000122587     0.530612
   0.000122603     0.560594
   0.000122617     0.590079
   0.000122629      0.61818
   0.000122642     0.649004
   0.000122654     0.682844
   0.000122666     0.720019
   0.000122678     0.760877
    0.00012269     0.805794
   0.000122703     0.855176
   0.000122715      0.90946
   0.000122727     0.969116
   0.000122739      1.03464
   0.000122751      1.10655
   0.000122764      1.18541
   0.000122776      1.27181
   0.000122788      1.36634
     0.0001228      1.46964
    0.00012281       1.5639
   0.000122823      1.68837
   0.000122835      1.82406
   0.000122848      1.97168
    0.00012286      2.13194
   0.000122873      2.30552
   0.000122885      2.49314
   0.000122898      2.69538
   0.000122911      2.91285
   0.000122923      3.14604
   0.000122936      3.39545
   0.000122951      3.73228
   0.000122969       4.1343
   0.000122986      4.56878
   0.000123003      5.03548
   0.000123021      5.53343
   0.000123041      6.16202
   0.000123059      6.74341
   0.000123086      7.66241
   0.000123126       9.0822
   0.000123185       11.249
   0.000123218      12.3718
   0.000123246      13.2309
    0.00012327      13.9011
   0.000123291      14.3776
   0.000123309      14.7338
   0.000123328       15.015
   0.000123346      15.2161
   0.000123363       15.327
   0.000123381      15.3661
   0.000123401      15.3162
    0.00012342      15.1737
   0.000123439      14.9489
   0.000123457      14.6477
   0.000123476      14.2732
   0.000123497       13.752
   0.000123521      13.0908
   0.000123548      12.2509
   0.000123578      11.1938
   0.000123666       8.0156
   0.000123691      7.14778
   0.000123717      6.30413
   0.000123734      5.76683
   0.000123752      5.25839
   0.000123769       4.7806
   0.000123786      4.33455
     0.0001238      4.00994
   0.000123815      3.66291
   0.000123831      3.34118
   0.000123846      3.04424
   0.000123858      2.83736
   0.000123869      2.64365
   0.000123881      2.46265
   0.000123892      2.29391
   0.000123904      2.13692
   0.000123915      1.99117
   0.000123927      1.85607
   0.000123938      1.73111
    0.00012395       1.6157
   0.000123962      1.50931
   0.000123973      1.41135
   0.000123985       1.3213
   0.000123996      1.23862
   0.000124008      1.16281
   0.000124019      1.09334
   0.000124031      1.02976
   0.000124042     0.971608
   0.000124054     0.918462
   0.000124066     0.869904
   0.000124077     0.825561
   0.000124089      0.78507
   0.000124104     0.736029
   0.000124116     0.702015
   0.000124132     0.661368
   0.000124148     0.625479
   0.000124164      0.59375
    0.00012418     0.565645
   0.000124196     0.540699
   0.000124212     0.518502
   0.000124229     0.498697
   0.000124253     0.472804
   0.000124277     0.450731
   0.000124301     0.431771
   0.000124325     0.415366
   0.000124349     0.401067
   0.000124373     0.388521
   0.000124405     0.374036
   0.000124437      0.36165
   0.000124469     0.350972
   0.000124517     0.337535
   0.000124566     0.326571
   0.000124614     0.317572
   0.000124662     0.310173
    0.00012471     0.304103
   0.000124774     0.297721
   0.000124838     0.292961
   0.000124915     0.289002
   0.000125005     0.286367
    0.00012511     0.285493
    0.00012517     0.285895
    0.00012529     0.288388
    0.00012541     0.292857
    0.00012553     0.299081
    0.00012565     0.306931
    0.00012577     0.316347
    0.00012589     0.327324
    0.00012601     0.339898
   0.000126134     0.354666
   0.000126258     0.371335
   0.000126382     0.390064
   0.000126506     0.411054
    0.00012663     0.434555
   0.000126755      0.46087
   0.000126879     0.490372
   0.000127003     0.523518
   0.000127097     0.551488
   0.000127191      0.58218
   0.000127286     0.615936
    0.00012738     0.653154
   0.000127469      0.69203
   0.000127559     0.734899
   0.000127658     0.787891
   0.000127749     0.842378
   0.000127829     0.894899
    0.00012791     0.954423
   0.000127976      1.00708
   0.000128039      1.06249
   0.000128102      1.12291
   0.000128166      1.18896
   0.000128229      1.26137
   0.000128292      1.34099
    0.00012834      1.40647
   0.000128393      1.48574
   0.000128447      1.57227
     0.0001285      1.66697
   0.000128554      1.77092
   0.000128607      1.88541
    0.00012866      2.01194
   0.000128714      2.15231
    0.00012876      2.28721
   0.000128799      2.41253
   0.000128839        2.549
   0.000128878      2.69803
   0.000128918      2.86131
   0.000128957      3.04081
   0.000128996      3.23887
   0.000129036      3.45832
   0.000129071      3.67381
   0.000129101      3.88032
   0.000129132      4.10633
   0.000129162       4.3547
   0.000129193      4.62887
   0.000129223      4.93312
   0.000129254      5.27278
   0.000129277      5.55479
     0.0001293        5.864
   0.000129326      6.26234
   0.000129346      6.59386
   0.000129366      6.95813
   0.000129386      7.36032
   0.000129406       7.8065
   0.000129426      8.30411
   0.000129446      8.86182
   0.000129466      9.49016
   0.000129479      9.95434
   0.000129492      10.4596
   0.000129506      11.0108
   0.000129523      11.8048
   0.000129539      12.6259
   0.000129555      13.5439
   0.000129571      14.5721
   0.000129587      15.7254
   0.000129597       16.572
   0.000129608      17.4873
   0.000129618      18.4767
   0.000129629      19.5467
    0.00012964      20.7036
    0.00012965      21.9548
   0.000129661      23.3074
   0.000129672      24.7694
   0.000129682      26.3487
   0.000129697       28.683
   0.000129711      31.2692
   0.000129725      34.1309
    0.00012974      37.2923
   0.000129754      40.7787
   0.000129764      43.4407
   0.000129775      46.4402
   0.000129785      49.6526
   0.000129796      53.0882
   0.000129807      56.7576
   0.000129817      60.6707
   0.000129828      64.8372
   0.000129838      69.2662
   0.000129854       76.421
    0.00012987      84.2122
   0.000129886      92.6602
   0.000129902      101.783
   0.000129918      111.586
   0.000129934      121.893
   0.000129949      132.471
   0.000129965      144.735
   0.000129985      159.805
   0.000130007      178.541
   0.000130031       199.13
   0.000130061      226.841
   0.000130135      297.045
   0.000130166      324.366
   0.000130195      348.291
   0.000130217      363.883
   0.000130238      377.567
   0.000130259      388.715
   0.000130278      397.059
   0.000130298       403.57
   0.000130319      407.691
   0.000130341      409.061
   0.000130361      407.654
   0.000130381      403.773
   0.000130401      397.492
    0.00013042      389.276
   0.000130442      377.838
   0.000130466      362.241
   0.000130493      341.991
   0.000130523      316.905
   0.000130557      285.901
   0.000130634      212.995
   0.000130662      187.861
   0.000130681      171.864
   0.000130706      151.863
   0.000130724      138.179
   0.000130742      125.319
    0.00013076      113.314
   0.000130778      102.177
    0.00013079      95.2356
   0.000130803      88.0881
   0.000130817      80.8423
   0.000130831       74.112
   0.000130846      67.8807
    0.00013086      62.1291
   0.000130874      56.8359
   0.000130888      51.9782
   0.000130899      48.6062
    0.00013091      45.4556
   0.000130923      41.8111
   0.000130936       38.475
    0.00013095      35.4264
   0.000130963      32.6452
   0.000130976      30.1113
    0.00013099       27.806
   0.000131003      25.7108
   0.000131016      23.8086
    0.00013103      22.0825
   0.000131043      20.5173
   0.000131057      19.0086
   0.000131068      17.9763
   0.000131079       17.022
   0.000131089      16.1396
     0.0001311      15.3235
   0.000131116      14.2122
   0.000131132      13.2219
   0.000131148      12.3383
   0.000131164      11.5484
    0.00013118      10.8409
   0.000131196      10.2057
   0.000131212       9.6342
   0.000131228      9.11118
   0.000131245      8.62547
   0.000131262      8.18693
   0.000131278      7.78997
   0.000131301      7.31705
   0.000131323      6.89989
   0.000131345      6.53075
   0.000131368      6.20335
    0.00013139      5.91265
   0.000131414      5.63775
   0.000131439      5.38145
   0.000131465      5.15882
    0.00013149       4.9666
   0.000131516      4.80199
   0.000131541      4.66251
   0.000131566      4.54585
   0.000131592      4.44972
    0.00013162      4.36491
    0.00013165      4.29369
   0.000131696      4.21884
   0.000131828      4.07592
   0.000131869      4.01056
   0.000131903       3.9362
   0.000131939      3.83504
   0.000131978      3.69377
   0.000132015       3.5383
   0.000132056      3.34063
   0.000132096      3.12328
   0.000132207      2.49822
   0.000132241      2.31494
   0.000132275      2.14246
   0.000132309        1.982
   0.000132344      1.83636
   0.000132378      1.70602
   0.000132401      1.62753
   0.000132435      1.52182
   0.000132469      1.42948
   0.000132504       1.3491
   0.000132538      1.27913
   0.000132572      1.21805
   0.000132607       1.1644
   0.000132641      1.11692
   0.000132682      1.06633
   0.000132724      1.02152
   0.000132779     0.968702
   0.000132834     0.921939
   0.000132889     0.879846
   0.000132972     0.823554
   0.000133054      0.77386
   0.000133124      0.73631
   0.000133208     0.695324
   0.000133296     0.656384
   0.000133397     0.616109
   0.000133511     0.574902
   0.000133631     0.534989
   0.000133751     0.499348
   0.000133862     0.469357
   0.000133974     0.442591
   0.000134077     0.420503
   0.000134208      0.39532
   0.000134339     0.372991
    0.00013447     0.353266
   0.000134575     0.339434
   0.000134693     0.326131
    0.00013481     0.315156
   0.000135099     0.291964
   0.000135233     0.279243
   0.000135428     0.259367
   0.000135521     0.250901
   0.000135614     0.243509
   0.000135753     0.234243
   0.000135903     0.226045
   0.000136006     0.221119
   0.000136213      0.21263
   0.000136419     0.205769
   0.000136574     0.201715
   0.000136726     0.198897
   0.000136827     0.198133
   0.000136903     0.198663
   0.000136954     0.199887
   0.000137004     0.202128
   0.000137048     0.205199
   0.000137086     0.208866
   0.000137124     0.213664
   0.000137162     0.219744
     0.0001372     0.227215
   0.000137238     0.236116
   0.000137276     0.246397
   0.000137314     0.257888
   0.000137385     0.281701
   0.000137458     0.305828
   0.000137498     0.317557
   0.000137539     0.327087
   0.000137568     0.332227
   0.000137595     0.335469
   0.000137629     0.337252
   0.000137636     0.337304
   0.000137672     0.335837
   0.000137699     0.332847
   0.000137729     0.327963
   0.000137749     0.323684
   0.000137789     0.313254
    0.00013783     0.300956
   0.000137955     0.259379
   0.000137992     0.248334
   0.000138029     0.238404
   0.000138065      0.22975
   0.000138102     0.222435
   0.000138139     0.216434
   0.000138175      0.21166
   0.000138212     0.207986
   0.000138258     0.204698
   0.000138304     0.202621
   0.000138373     0.201188
   0.000138396     0.201048
   0.000138488     0.201622
   0.000138581     0.203405
   0.000138719     0.207444
   0.000138857     0.212707
   0.000139012     0.219958
   0.000139138     0.226934
   0.000139263     0.234994
   0.000139389     0.244266
   0.000139514     0.254916
    0.00013964     0.267172
   0.000139734     0.277622
   0.000139828     0.289421
   0.000139923     0.303015
   0.000140002     0.316428
   0.000140074     0.330748
   0.000140122     0.341764
    0.00014017     0.354183
   0.000140218     0.368172
   0.000140266     0.383822
   0.000140338     0.410328
   0.000140429     0.447855
    0.00014056     0.503693
   0.000140634     0.532315
    0.00014071     0.557686
   0.000140909     0.616268
   0.000140965     0.635485
   0.000141021     0.658131
   0.000141076     0.685108
   0.000141132      0.71708
   0.000141188     0.754533
    0.00014123     0.786026
   0.000141275     0.824578
   0.000141321     0.867523
   0.000141366      0.91522
   0.000141411     0.968138
   0.000141457      1.02688
   0.000141502      1.09219
   0.000141548      1.16504
    0.00014159      1.23964
   0.000141628      1.31506
   0.000141666      1.39864
   0.000141704       1.4917
   0.000141742      1.59592
   0.000141771      1.68267
   0.000141799      1.77799
   0.000141828      1.88328
   0.000141856      2.00023
   0.000141875      2.08571
   0.000141902      2.21911
   0.000141929       2.3691
    0.00014195      2.49447
    0.00014197      2.63277
    0.00014199      2.78609
   0.000142011      2.95686
   0.000142031      3.14804
   0.000142051      3.36308
   0.000142071      3.60611
   0.000142085      3.78603
   0.000142103      4.05026
    0.00014212      4.32707
   0.000142136      4.63669
   0.000142153      4.98378
    0.00014217      5.37338
   0.000142181      5.65956
   0.000142192      5.96909
   0.000142204       6.3039
   0.000142215      6.66616
   0.000142226      7.05808
   0.000142237      7.48215
   0.000142248      7.94083
    0.00014226      8.43686
   0.000142271      8.97299
   0.000142283      9.62795
   0.000142296      10.3418
   0.000142309      11.1192
   0.000142321      11.9648
   0.000142334      12.8837
   0.000142346      13.8808
   0.000142359      14.9613
   0.000142371      16.1301
   0.000142384      17.3926
   0.000142397      18.7537
   0.000142405      19.7183
    0.00014242      21.5517
   0.000142435      23.5427
    0.00014245      25.6987
   0.000142465      28.0258
    0.00014248      30.5296
   0.000142495       33.214
   0.000142509       36.082
   0.000142524      39.1347
   0.000142541      42.7582
   0.000142558      46.6074
    0.00014258      52.0787
   0.000142602      57.9132
   0.000142631      65.8594
   0.000142665      76.1124
   0.000142748      101.509
   0.000142784      111.911
   0.000142813      119.674
   0.000142838      125.573
   0.000142853       128.79
    0.00014288      133.804
     0.0001429      136.842
   0.000142921      139.286
   0.000142946       141.22
   0.000142965      141.955
   0.000142974      142.056
   0.000142997       141.68
   0.000143018      140.511
   0.000143038      138.708
   0.000143059      136.268
   0.000143081       132.87
   0.000143109       127.65
    0.00014313      123.246
   0.000143159      116.515
   0.000143188      109.245
   0.000143298      79.9971
   0.000143333      71.2684
    0.00014336       64.783
   0.000143384      59.2232
   0.000143412      53.1133
   0.000143435      48.5457
    0.00014346      43.8923
   0.000143481      40.2751
   0.000143501      36.8908
   0.000143522       33.733
   0.000143543      30.7944
   0.000143559      28.5788
   0.000143576      26.4957
   0.000143593      24.5398
   0.000143609      22.7066
   0.000143627      20.8948
   0.000143645      19.2088
   0.000143662      17.6427
    0.00014368      16.1909
   0.000143698      14.8475
   0.000143715      13.6169
   0.000143733      12.4866
    0.00014375      11.4463
   0.000143765      10.6108
    0.00014378      9.83609
   0.000143795      9.11893
   0.000143811      8.45612
   0.000143826      7.84444
   0.000143841      7.28087
   0.000143856      6.76234
   0.000143871      6.28598
   0.000143887      5.83493
   0.000143903       5.4228
   0.000143919      5.02585
   0.000143935      4.68263
    0.00014395      4.38403
   0.000143965      4.11556
   0.000143979      3.86993
   0.000143994      3.64162
    0.00014401      3.43144
   0.000144025      3.23963
    0.00014404      3.06448
   0.000144055      2.90449
   0.000144065      2.80553
   0.000144085       2.6243
   0.000144106      2.46298
   0.000144129      2.29958
   0.000144152      2.15553
   0.000144177      2.01961
   0.000144195      1.92781
   0.000144223      1.80466
   0.000144251      1.69624
   0.000144279      1.60005
   0.000144307      1.51407
   0.000144335      1.43666
   0.000144354      1.38917
   0.000144391      1.30262
   0.000144428      1.22563
   0.000144465      1.15661
   0.000144501      1.09763
   0.000144536      1.04384
   0.000144583     0.979094
    0.00014463     0.921222
   0.000144676     0.869284
   0.000144723     0.822559
    0.00014477     0.780491
   0.000144817     0.742659
   0.000144862     0.710265
   0.000144904      0.68259
   0.000144947     0.657812
   0.000144989     0.635808
   0.000145032     0.616442
   0.000145096     0.591954
   0.000145159     0.572169
   0.000145219     0.556875
   0.000145385     0.519182
   0.000145457     0.499802
   0.000145525     0.478623
    0.00014561     0.448194
   0.000145747     0.396337
   0.000145818     0.371515
   0.000145879     0.352577
    0.00014594     0.336102
   0.000146001     0.322022
   0.000146062     0.310062
   0.000146123     0.299862
   0.000146184     0.291064
   0.000146276     0.279849
   0.000146371     0.270096
   0.000146435       0.2643
   0.000146563     0.254297
   0.000146691     0.246103
    0.00014682     0.239502
   0.000146951     0.234243
   0.000147083     0.230418
   0.000147217     0.227933
   0.000147368     0.226808
   0.000147382     0.226793
   0.000147503     0.227315
   0.000147614     0.228843
   0.000147733     0.231663
   0.000147852     0.235828
   0.000147942         0.24
   0.000148043     0.245941
   0.000148143     0.253603
   0.000148219     0.260773
   0.000148294     0.269381
    0.00014837     0.279598
   0.000148446     0.291278
   0.000148588     0.315928
    0.00014887     0.366787
   0.000148943     0.380998
   0.000149011     0.396266
   0.000149068     0.410548
   0.000149124      0.42679
   0.000149181     0.445305
   0.000149238     0.466371
   0.000149298     0.492247
   0.000149345     0.514424
   0.000149391     0.538934
   0.000149438     0.566019
   0.000149484      0.59598
   0.000149531     0.629188
   0.000149577     0.666097
   0.000149624     0.707274
   0.000149667      0.75025
   0.000149708     0.794763
   0.000149748     0.844391
   0.000149788     0.900054
   0.000149819     0.946466
   0.000149849     0.997567
   0.000149879      1.05415
    0.00014991      1.11721
    0.00014994      1.18801
    0.00014997      1.26817
   0.000149991      1.33017
   0.000150012      1.39851
   0.000150033      1.47422
   0.000150054      1.55851
   0.000150075      1.65288
   0.000150096      1.75908
   0.000150112      1.84774
   0.000150128      1.94523
   0.000150144      2.05681
   0.000150161      2.18969
   0.000150179      2.33855
   0.000150195      2.49034
    0.00015021      2.65083
   0.000150225      2.82876
    0.00015024      3.02622
   0.000150255      3.24544
    0.00015027      3.48893
   0.000150286      3.75936
   0.000150301      4.05965
   0.000150314       4.3407
   0.000150325      4.61947
   0.000150337      4.92133
    0.00015035      5.26786
   0.000150359      5.56208
   0.000150375      6.05625
   0.000150389      6.59199
   0.000150404      7.17595
   0.000150419      7.81638
   0.000150434      8.53631
   0.000150449      9.32432
   0.000150464      10.1849
    0.00015048      11.1223
   0.000150495      12.1407
    0.00015051      13.2441
   0.000150525      14.4361
    0.00015054      15.7201
   0.000150556       17.123
   0.000150571      18.6266
   0.000150586      20.2331
   0.000150602      21.9436
   0.000150618      23.8319
   0.000150639      26.5251
   0.000150661      29.4167
   0.000150682      32.5006
   0.000150705      36.0081
   0.000150731      40.2836
   0.000150764      46.0052
   0.000150799      52.2571
   0.000150845      61.0161
   0.000151114       114.09
     0.0001512       131.59
   0.000151315      156.227
   0.000151347        163.1
   0.000151353      164.518
   0.000151353      31.0253
   0.000153489      30.7501
   0.000155654      30.4709
    0.00015785      30.1879
   0.000160077      29.9008
   0.000162336      29.6097
   0.000164626      29.3144
   0.000166948      29.0151
   0.000169304      28.7114
   0.000171692      28.4035
   0.000174115      28.0913
   0.000176571      27.7746
   0.000179062      27.4535
   0.000181588      27.1279
    0.00018415      26.7976
   0.000186748      26.4627
   0.000189383      26.1231
   0.000192055      25.7787
   0.000194764      25.4294
   0.000197512      25.0752
        0.0002      24.7545
   0.000202822       24.599
   0.000205683      24.4413
   0.000208585      24.2814
   0.000211528      24.1192
   0.000214512      23.9548
   0.000217538       23.788
   0.000220607      23.6188
    0.00022372      23.4473
   0.000226876      23.2734
   0.000230077       23.097
   0.000233323      22.9181
   0.000236615      22.7367
   0.000239953      22.5527
   0.000243338      22.3662
   0.000246771       22.177
   0.000250253      21.9851
   0.000253783      21.7906
   0.000257364      21.5932
   0.000260995      21.3931
   0.000264677      21.1902
   0.000268411      20.9844
   0.000272198      20.7758
   0.000276038      20.5641
   0.000279932      20.3495
   0.000283882      20.1319
   0.000287887      19.9111
   0.000291948      19.6873
   0.000296067      19.4603
        0.0003      19.2436
   0.000304232      19.1467
   0.000308525      19.0484
   0.000312877      18.9487
   0.000317292      18.8476
   0.000321768      18.7451
   0.000326307      18.6412
   0.000330911      18.5357
    0.00033558      18.4288
   0.000340314      18.3204
   0.000345115      18.2105
   0.000349984       18.099
   0.000354922      17.9859
   0.000359929      17.8712
   0.000365007       17.755
   0.000370157       17.637
   0.000375379      17.5174
   0.000380675      17.3962
   0.000386046      17.2732
   0.000391492      17.1485
   0.000397015       17.022
   0.000402616      16.8937
   0.000408297      16.7636
   0.000414057      16.6317
   0.000419899       16.498
   0.000425823      16.3623
    0.00043183      16.2247
   0.000437922      16.0852
   0.000444101      15.9437
   0.000450366      15.8003
    0.00045672      15.6548
   0.000463164      15.5072
   0.000469698      15.3576
   0.000476325      15.2058
   0.000483045      15.0519
    0.00048986      14.8959
   0.000496771      14.7376
   0.000503779      14.5771
   0.000510886      14.4144
   0.000518094      14.2493
   0.000525404      14.0819
   0.000532816      13.9122
   0.000540333      13.7401
   0.000547956      13.5655
   0.000555687      13.3885
   0.000563527      13.2089
   0.000571477      13.0269
    0.00057954      12.8422
   0.000587716       12.655
   0.000596007      12.4651
        0.0006      12.3737
   0.000608465      12.2995
   0.000617049      12.2243
   0.000625755      12.1479
   0.000634583      12.0706
   0.000643536      11.9921
   0.000652615      11.9125
   0.000661822      11.8318
   0.000671159      11.7499
   0.000680628      11.6669
   0.000690231      11.5828
   0.000699968      11.4974
   0.000709844      11.4108
   0.000719858      11.3231
   0.000730014       11.234
   0.000740313      11.1438
   0.000750758      11.0522
    0.00076135      10.9594
   0.000772091      10.8652
   0.000782984      10.7697
    0.00079403      10.6729
   0.000805233      10.5747
   0.000816593      10.4751
   0.000828114      10.3741
   0.000839797      10.2717
   0.000851645      10.1679
    0.00086366      10.0625
   0.000875845      9.95574
   0.000888201      9.84743
   0.000900732      9.73759
    0.00091344      9.62619
   0.000926327      9.51323
   0.000939396      9.39867
   0.000952649       9.2825
   0.000966089      9.16469
   0.000979719      9.04522
   0.000993541      8.92406
         0.001      8.86744
    0.00101411      8.82151
    0.00102842      8.77493
    0.00104292      8.72769
    0.00105764      8.67978
    0.00107256       8.6312
    0.00108769      8.58193
    0.00110304      8.53197
     0.0011186      8.48131
    0.00113438      8.42992
    0.00115038      8.37782
    0.00116661      8.32498
    0.00118307      8.27139
    0.00119976      8.21705
    0.00121669      8.16194
    0.00123386      8.10605
    0.00125126      8.04938
    0.00126892       7.9919
    0.00128682      7.93361
    0.00130497      7.87451
    0.00132338      7.81456
    0.00134205      7.75378
    0.00136099      7.69213
    0.00138019      7.62962
    0.00139966      7.56622
    0.00141941      7.50193
    0.00143943      7.43673
    0.00145974      7.37061
    0.00148034      7.30356
    0.00150122      7.23556
     0.0015224       7.1666
    0.00154388      7.09668
    0.00156566      7.02576
    0.00158775      6.95384
    0.00161015      6.88091
    0.00163287      6.80695
     0.0016559      6.73195
    0.00167926      6.65589
    0.00170296      6.57875
    0.00172698      6.50053
    0.00175135       6.4212
    0.00177605      6.34076
    0.00180111      6.25918
    0.00182652      6.17645
    0.00185229      6.09255
    0.00187842      6.00746
    0.00190492      5.92118
     0.0019318      5.83368
    0.00195905      5.74495
    0.00198669      5.65496
         0.002      5.61163
    0.00202822      5.57465
    0.00205683      5.53716
    0.00208585      5.49913
    0.00211528      5.46057
    0.00214512      5.42146
    0.00217538       5.3818
    0.00220607      5.34159
     0.0022372       5.3008
    0.00226876      5.25944
    0.00230077       5.2175
    0.00233323      5.17496
    0.00236615      5.13182
    0.00239953      5.08808
    0.00243338      5.04372
    0.00246771      4.99873
    0.00250253      4.95311
    0.00253783      4.90684
    0.00257364      4.85992
    0.00260995      4.81234
    0.00264677      4.76409
    0.00268411      4.71516
    0.00272198      4.66554
    0.00276038      4.61521
    0.00279932      4.56418
    0.00283882      4.51243
    0.00287887      4.45994
    0.00291948      4.40672
    0.00296067      4.35275
         0.003      4.30121
    0.00304232      4.27975
    0.00308525      4.25798
    0.00312877       4.2359
    0.00317291      4.21352
    0.00321768      4.19082
    0.00326307      4.16779
    0.00330911      4.14445
     0.0033558      4.12077
    0.00340314      4.09676
    0.00345115      4.07241
    0.00349984      4.04772
    0.00354922      4.02268
    0.00359929      3.99728
    0.00365007      3.97153
    0.00370157      3.94541
    0.00375379      3.91893
    0.00380675      3.89207
    0.00386046      3.86484
    0.00391492      3.83721
    0.00397015       3.8092
    0.00402616       3.7808
    0.00408297      3.75199
    0.00414057      3.72278
    0.00419898      3.69315
    0.00425823      3.66311
     0.0043183      3.63264
    0.00437922      3.60175
    0.00444101      3.57041
    0.00450366      3.53864
     0.0045672      3.50641
    0.00463164      3.47374
    0.00469698       3.4406
    0.00476325      3.40699
    0.00483045      3.37291
     0.0048986      3.33835
    0.00496771       3.3033
    0.00503779      3.26776
    0.00510887      3.23171
    0.00518094      3.19516
    0.00525404      3.15809
    0.00532816       3.1205
    0.00540333      3.08238
    0.00547956      3.04372
    0.00555687      3.00451
    0.00563527      2.96475
    0.00571477      2.92443
     0.0057954      2.88354
    0.00587716      2.84208
    0.00596007      2.80003
         0.006      2.77978
    0.00608465      2.76489
    0.00617049      2.74979
    0.00625755      2.73447
    0.00634583      2.71894
    0.00643536      2.70319
    0.00652615      2.68722
    0.00661822      2.67103
    0.00671159       2.6546
    0.00680628      2.63794
    0.00690231      2.62105
    0.00699968      2.60392
    0.00709844      2.58655
    0.00719858      2.56893
    0.00730014      2.55107
    0.00740313      2.53295
    0.00750758      2.51457
     0.0076135      2.49594
    0.00772091      2.47705
    0.00782984      2.45788
     0.0079403      2.43845
    0.00805233      2.41874
    0.00816593      2.39876
    0.00828114      2.37849
    0.00839797      2.35794
    0.00851645       2.3371
     0.0086366      2.31596
    0.00875845      2.29453
    0.00888202      2.27279
    0.00900732      2.25075
     0.0091344      2.22839
    0.00926327      2.20572
    0.00939396      2.18273
    0.00952649      2.15942
    0.00966089      2.13577
    0.00979719       2.1118
    0.00993541      2.08748
          0.01      2.07612
     0.0101411      2.06775
     0.0102842      2.05927
     0.0104292      2.05066
     0.0105764      2.04193
     0.0107256      2.03308
     0.0108769      2.02411
     0.0110304      2.01501
      0.011186      2.00578
     0.0113438      1.99642
     0.0115038      1.98692
     0.0116661       1.9773
     0.0118307      1.96754
     0.0119976      1.95764
     0.0121669       1.9476
     0.0123386      1.93742
     0.0125126      1.92709
     0.0126892      1.91662
     0.0128682        1.906
     0.0130497      1.89523
     0.0132338      1.88431
     0.0134205      1.87324
     0.0136099      1.86201
     0.0138019      1.85062
     0.0139966      1.83907
     0.0141941      1.82736
     0.0143943      1.81548
     0.0145974      1.80344
     0.0148034      1.79122
     0.0150122      1.77884
      0.015224      1.76627
     0.0154388      1.75353
     0.0156566      1.74062
     0.0158775      1.72751
     0.0161015      1.71423
     0.0163287      1.70076
      0.016559      1.68709
     0.0167926      1.67324
     0.0170295      1.65918
     0.0172698      1.64493
     0.0175135      1.63048
     0.0177605      1.61583
     0.0180111      1.60097
     0.0182652      1.58589
     0.0185229      1.57061
     0.0187842      1.55511
     0.0190492      1.53939
      0.019318      1.52345
     0.0195905      1.50729
     0.0198669      1.49089
          0.02        1.483
     0.0202822      1.47656
     0.0205683      1.47003
     0.0208585      1.46341
     0.0211528       1.4567
     0.0214512      1.44989
     0.0217538      1.44298
     0.0220607      1.43598
      0.022372      1.42888
     0.0226876      1.42167
     0.0230077      1.41437
     0.0233323      1.40696
     0.0236615      1.39945
     0.0239953      1.39184
     0.0243338      1.38411
     0.0246771      1.37628
     0.0250253      1.36833
     0.0253783      1.36028
     0.0257364      1.35211
     0.0260995      1.34382
     0.0264677      1.33542
     0.0268411       1.3269
     0.0272198      1.31826
     0.0276038       1.3095
     0.0279932      1.30061
     0.0283882       1.2916
     0.0287887      1.28246
     0.0291948      1.27319
     0.0296067      1.26379
          0.03      1.25482
     0.0304232      1.25075
     0.0308525      1.24662
     0.0312877      1.24243
     0.0317292      1.23818
     0.0321768      1.23388
     0.0326307      1.22951
     0.0330911      1.22508
      0.033558      1.22059
     0.0340314      1.21603
     0.0345115      1.21141
     0.0349984      1.20673
     0.0354922      1.20198
     0.0359929      1.19716
     0.0365007      1.19227
     0.0370157      1.18732
     0.0375379      1.18229
     0.0380675       1.1772
     0.0386046      1.17203
     0.0391492      1.16679
     0.0397015      1.16147
     0.0402616      1.15609
     0.0408297      1.15062
     0.0414057      1.14508
     0.0419899      1.13946
     0.0425823      1.13376
      0.043183      1.12798
     0.0437922      1.12211
     0.0444101      1.11617
     0.0450366      1.11014
      0.045672      1.10403
     0.0463164      1.09783
     0.0469698      1.09154
     0.0476325      1.08517
     0.0483045       1.0787
      0.048986      1.07214
     0.0496771      1.06549
     0.0503779      1.05875
     0.0510887      1.05191
     0.0518094      1.04498
     0.0525404      1.03794
     0.0532816      1.03081
     0.0540333      1.02358
     0.0547956      1.01624
     0.0555687       1.0088
     0.0563527      1.00126
     0.0571477     0.993612
      0.057954     0.985855
     0.0587716     0.977988
     0.0596007      0.97001
          0.06     0.966168
     0.0608465      0.96268
     0.0617049     0.959142
     0.0625755     0.955554
     0.0634583     0.951916
     0.0643536     0.948227
     0.0652615     0.944485
     0.0661822     0.940691
     0.0671159     0.936843
     0.0680628     0.932941
     0.0690231     0.928984
     0.0699968     0.924971
     0.0709844     0.920901
     0.0719858     0.916774
     0.0730014     0.912589
     0.0740314     0.908345
     0.0750758     0.904041
      0.076135     0.899676
     0.0772091     0.895249
     0.0782984      0.89076
      0.079403     0.886208
     0.0805233     0.881592
     0.0816593      0.87691
     0.0828114     0.872162
     0.0839797     0.867348
     0.0851645     0.862465
      0.086366     0.857514
     0.0875845     0.852492
     0.0888202       0.8474
     0.0900732     0.842236
      0.091344     0.836999
     0.0926327     0.831689
     0.0939396     0.826303
     0.0952649     0.820841
     0.0966089     0.815303
     0.0979719     0.809686
     0.0993541      0.80399
           0.1     0.801328
      0.110672     0.772009
      0.110672     0.771993
           0.2     0.526609
      0.302116     0.439605
           0.4     0.369577
           0.5     0.326021
           0.6     0.255428
      0.699969     0.220252
           0.8     0.190132
      0.912697     0.173458
       1.00705     0.160828
           1.2     0.137772
           1.4     0.119846
           1.6     0.106367
           1.8    0.0956332
       2.01411    0.0869505
           2.2    0.0805292
       2.41693    0.0750011
       2.61834    0.0704901
       2.81975    0.0667502
       3.02116    0.0633947
           3.2    0.0601134
           3.4    0.0570553
           3.6    0.0529786
             4    0.0458593
           4.2    0.0417524
        4.6649    0.0337016
           4.8    0.0313036
             5    0.0283687
       5.23668    0.0251244
           5.4    0.0228055
           5.6    0.0205207
       5.88183    0.0177095
             6    0.0165047
           6.2    0.0147502
           6.4    0.0132465
           6.6    0.0119635
           6.8    0.0106015
             7   0.00954221
           7.2    0.0086512
           7.4   0.00784783
           7.6   0.00709415
           7.8   0.00641779
             8   0.00589159
           8.5   0.00481125
             9   0.00404927
           9.5   0.00349813
            10   0.00309753
       10.1411   0.00301475
       10.2842   0.00293082
       10.4292    0.0028457
          10.5   0.00280419
       10.6481   0.00273497
       10.7984   0.00266478
       10.9507   0.00259359
            11   0.00257056
       11.1552   0.00251884
       11.3126   0.00246638
       11.4722   0.00241319
        11.634   0.00235924
       11.7982   0.00230453
       11.9646   0.00224906
            12   0.00223726
       12.1693   0.00220014
        12.341    0.0021625
          12.5   0.00212763
       12.6764   0.00208018
       12.8552   0.00203206
            13    0.0019931
       13.1834   0.00195542
       13.3694   0.00191721
          13.5   0.00189038
       13.6905   0.00184011
       13.8836   0.00178913
            14   0.00175841
       14.1975   0.00171747
       14.3978   0.00167596
          14.5   0.00165478
       14.7046   0.00159299
        14.912   0.00153033
            15   0.00150376
       15.2116   0.00145349
       15.4262   0.00140251
       15.6439   0.00135082
       15.8646   0.00129839
            16   0.00126622
       16.2257   0.00121748
       16.4546   0.00116805
       16.6868   0.00111792
       16.9222   0.00106709
            17   0.00105029
       17.2398   0.00101447
       17.4831  0.000978148
       17.7297  0.000941312
       17.9799  0.000903956
            18  0.000900947
       18.2539  0.000870554
       18.5115  0.000839733
       18.7726  0.000808477
            19  0.000781266
       19.2681  0.000759815
       19.5399  0.000738062
       19.8156  0.000716001
            20  0.000701242
       20.2822  0.000680042
       20.5683  0.000658542
       20.8585  0.000636739
            21  0.000626107
       21.2963  0.000609932
       21.5967  0.000593528
       21.9014  0.000576893
            22  0.000571511
       22.3104  0.000556723
       22.6251  0.000541727
       22.9443  0.000526519
            23  0.000523867
       23.3245  0.000511258
       23.6536  0.000498471
       23.9873  0.000485504
            24  0.000485009
       24.3386  0.000474746
        24.682  0.000464338
            25  0.000454699
       25.3527  0.000444647
       25.7104  0.000434453
            26  0.000426199
       26.3668  0.000418113
       26.7388  0.000409914
            27  0.000404156
       27.3809  0.000397461
       27.7672  0.000390673
        28.159  0.000383788
       28.5562  0.000376806
       28.9591  0.000369726
            29  0.000369007
       29.4091  0.000362733
        29.824   0.00035637
            30  0.000353672
            30            0
       30.4232            0
       30.8525            0
       31.2877            0
       31.7292            0
       32.1768            0
       32.6307            0
       33.0911            0
        33.558            0
       34.0314            0
       34.5115            0
       34.9984            0
       35.4922            0
       35.9929            0
       36.5007            0
       37.0157            0
       37.5379            0
       38.0675            0
       38.6046            0
       39.1492            0
       39.7015            0
       40.2616            0
       40.8297            0
       41.4057            0
       41.9898            0
       42.5823            0
        43.183            0
       43.7922            0
       44.4101            0
       45.0366            0
        45.672            0
       46.3164            0
       46.9698            0
       47.6325            0
       48.3045            0
        48.986            0
       49.6771            0
       50.3779            0
       51.0887            0
       51.8094            0
       52.5404            0
       53.2816            0
       54.0333            0
       54.7956            0
       55.5687            0
       56.3527            0
       57.1477            0
        57.954            0
       58.7716            0
       59.6007            0
       60.4416            0
       61.2943            0
       62.1591            0
        63.036            0
       63.9254            0
       64.8272            0
       65.7418            0
       66.6693            0
       67.6099            0
       68.5638            0
       69.5311            0
        70.512            0
       71.5068            0
       72.5157            0
       73.5387            0
       74.5762            0
       75.6284            0
       76.6953            0
       77.7774            0
       78.8747            0
       79.9875            0
       81.1159            0
       82.2603            0
       83.4209            0
       84.5978            0
       85.7913            0
       87.0017            0
       88.2291            0
       89.4739            0
       90.7362            0
       92.0163            0
       93.3145            0
        94.631            0
       95.9661            0
         97.32            0
        98.693            0
       100.085            0
       101.497            0
       102.929            0
       104.381            0
       105.854            0
       107.348            0
       108.862            0
       110.398            0
       111.955            0
       113.535            0
       115.137            0
       116.761            0
       118.408            0
       120.079            0
       121.773            0
       123.491            0
       125.233            0
           127            0
       128.792            0
       130.609            0
       132.451            0
        134.32            0
       136.215            0
       138.137            0
       140.086            0
       142.062            0
       144.066            0
       146.099            0
        148.16            0
        150.25            0
        152.37            0
        154.52            0
         156.7            0
        158.91            0
       161.152            0
       163.426            0
       165.732            0
        168.07            0
       170.441            0
       172.845            0
       175.284            0
       177.757            0
       180.265            0
       182.808            0
       185.387            0
       188.003            0
       190.655            0
       193.345            0
       196.073            0
       198.839            0
           200            0
//
#-------------------------------------------------------------------------------
