#ZVView-data-copy:  31-Jul-2018 00:34:08
#=======================================
#
#name:   JENDL-4.0: XE-124(N,TOT)
#X.axis: Incident Energy
#Y.axis: Cross Section
#wdata:  2
#ldata:  3266
#data...
#            X            Y
#          MeV        barns
         1e-11      7405.36
   1.10304e-11      7051.02
   1.21669e-11      6713.62
   1.34206e-11      6392.37
   1.48034e-11       6086.5
   1.63287e-11      5795.26
   1.64438e-11      5776.28
   1.80111e-11      5517.95
   1.82652e-11       5481.8
   1.98669e-11      5253.92
   2.02893e-11      5202.04
   2.19139e-11      5002.52
   2.25366e-11       4936.5
   2.41719e-11      4763.15
   2.50341e-11      4684.25
   2.66625e-11      4535.23
    2.7807e-11      4444.83
   2.94097e-11      4318.23
   3.08885e-11      4217.39
     3.244e-11       4111.6
   3.43098e-11      4001.55
   3.57825e-11      3914.86
   3.81119e-11      3796.51
   3.94694e-11      3727.54
   4.23333e-11      3601.94
   4.35362e-11      3549.18
   4.70246e-11      3417.12
   4.80221e-11      3379.36
   5.22332e-11      3241.74
   5.29701e-11      3217.66
   5.80216e-11      3075.16
    5.8428e-11       3063.7
   6.44483e-11      2917.11
   7.10888e-11      2777.53
   7.15903e-11      2768.43
   7.84136e-11      2644.63
   7.95198e-11       2627.3
   8.64931e-11      2518.09
   8.89508e-11      2484.87
   9.54051e-11      2397.61
   9.95003e-11      2349.82
   1.05235e-10      2282.89
   1.11301e-10      2221.79
   1.16078e-10      2173.67
   1.24501e-10      2100.43
   1.28039e-10      2069.67
   1.39267e-10      1985.39
   1.41231e-10      1970.64
   1.55784e-10      1876.36
   1.56883e-10      1870.21
   1.71835e-10      1786.59
   1.76718e-10      1763.01
    1.8954e-10      1701.11
   1.99071e-10      1661.39
    2.0907e-10      1619.73
   2.25822e-10      1559.47
   2.30612e-10      1542.23
   2.54374e-10      1468.45
   2.56168e-10      1463.64
   2.80584e-10       1398.2
   2.92627e-10      1370.34
   3.09494e-10      1331.32
   3.34292e-10      1281.79
   3.41383e-10      1267.63
   3.76558e-10      1206.99
   3.84565e-10      1195.08
   4.15358e-10      1149.25
   4.45496e-10      1110.54
   4.58155e-10      1094.28
   5.05362e-10      1041.94
   5.19722e-10       1028.2
   5.57433e-10      992.105
   6.10592e-10      948.188
   6.14869e-10      944.655
   6.78223e-10      899.476
   7.27435e-10      869.184
   7.48105e-10       856.46
   8.25188e-10      815.504
    8.7275e-10       793.69
   9.10213e-10      776.508
      1.004e-9       739.38
    1.06936e-9      717.045
    1.10745e-9      704.029
    1.22155e-9      670.371
    1.33805e-9      640.711
    1.34742e-9      638.325
    1.48625e-9      607.813
    1.63939e-9      578.763
    1.70976e-9       567.24
    1.80831e-9      551.104
    1.99463e-9      524.771
    2.20016e-9      499.698
    2.26267e-9      493.115
    2.42685e-9      475.828
    2.67691e-9      453.101
    2.95273e-9      431.463
    3.12292e-9      419.939
    3.25697e-9      410.863
    3.59256e-9       391.25
    3.96272e-9      372.578
    4.37103e-9      354.802
    4.59081e-9      346.544
    4.82141e-9       337.88
    5.31819e-9      321.772
    5.86616e-9      306.439
    6.47059e-9      291.846
     7.1373e-9      277.957
    7.39189e-9      273.381
    7.87271e-9      264.738
    8.68389e-9      252.154
    9.57865e-9       240.17
    1.05656e-8      228.757
    1.16543e-8       217.89
    1.28551e-8      207.546
    1.36919e-8      201.329
    1.41796e-8      197.706
    1.56406e-8      188.345
    1.72522e-8      179.434
    1.90298e-8      170.948
    2.09906e-8      162.869
    2.31534e-8      155.183
    2.52419e-8      148.726
       2.53e-8      148.558
    2.79068e-8       141.57
    3.07823e-8      134.916
     3.3954e-8      128.585
    3.74525e-8      122.566
    4.13115e-8      116.852
    4.55681e-8      111.426
    5.06179e-8      105.896
    5.58334e-8      100.989
    6.15863e-8      96.3245
    6.79319e-8      91.8937
     7.3889e-8      88.3123
    7.49314e-8      87.6857
    8.26521e-8      83.6931
    9.11684e-8      79.9158
    1.01266e-7      76.0752
    1.12489e-7      72.4303
    1.24948e-7      68.9887
    1.38795e-7      65.7388
    1.54168e-7      62.6746
    1.71253e-7      59.7881
    1.90221e-7      57.0718
    2.11301e-7      54.5115
    2.28221e-7      52.7883
    2.34706e-7      52.1279
    2.60715e-7      49.8676
    2.89593e-7      47.7499
     2.9575e-7      47.3702
    3.21685e-7      45.7712
    3.57316e-7      43.9294
    3.96913e-7      42.2197
     4.1105e-7      41.7118
    4.40876e-7      40.6406
    4.59801e-7      40.0819
    4.93163e-7      39.0973
    5.03649e-7      38.8466
    5.43978e-7       37.883
    5.51652e-7      37.6997
     5.7939e-7      37.1693
    6.12785e-7       36.531
    6.17077e-7       36.449
    6.43565e-7      36.0506
     6.7119e-7      35.6352
    6.90262e-7      35.3486
    6.95131e-7      35.2923
    7.19891e-7      35.0064
    7.40347e-7      34.7703
    7.61385e-7      34.5276
    7.72126e-7      34.4037
    7.77573e-7      34.3574
    7.94067e-7      34.2173
     8.1095e-7       34.074
    8.28152e-7      33.9281
    8.42797e-7       33.804
    8.57692e-7      33.6778
      8.637e-7      33.6269
    8.69792e-7      33.5913
    8.82063e-7      33.5198
    8.91375e-7      33.4655
    9.00773e-7      33.4108
    9.10305e-7      33.3554
    9.19926e-7      33.2994
    9.29637e-7       33.243
    9.36171e-7       33.205
    9.42752e-7      33.1668
    9.51036e-7      33.1187
    9.57733e-7      33.0798
    9.64453e-7      33.0409
    9.66133e-7      33.0311
    9.71245e-7      33.0136
    9.76356e-7       32.996
    9.81492e-7      32.9784
    9.86675e-7      32.9607
    9.91859e-7      32.9429
    9.97091e-7       32.925
    1.00235e-6       32.907
    1.00585e-6       32.895
    1.00938e-6       32.883
    1.01293e-6      32.8708
    1.01649e-6      32.8587
    1.02004e-6      32.8465
    1.02362e-6      32.8343
    1.02723e-6       32.822
    1.03083e-6      32.8098
    1.03443e-6      32.7975
    1.03715e-6      32.7882
    1.03989e-6      32.7789
    1.04263e-6      32.7696
    1.04537e-6      32.7602
    1.04811e-6      32.7509
    1.05086e-6      32.7416
    1.05344e-6      32.7328
    1.05603e-6       32.724
    1.05862e-6      32.7152
    1.05992e-6      32.7108
    1.06215e-6      32.7032
    1.06496e-6      32.6937
    1.06776e-6      32.6841
    1.07057e-6      32.6746
    1.07338e-6      32.6651
    1.07619e-6      32.6556
    1.07903e-6      32.6459
    1.08188e-6      32.6363
     1.0824e-6      32.6345
    1.08473e-6      32.6315
    1.08757e-6      32.6278
    1.09042e-6      32.6241
    1.09329e-6      32.6204
    1.09618e-6      32.6166
    1.09907e-6      32.6129
    1.10292e-6      32.6079
    1.10677e-6      32.6029
    1.11067e-6      32.5979
    1.11457e-6      32.5929
    1.11848e-6      32.5878
    1.12238e-6      32.5828
    1.12634e-6      32.5777
     1.1303e-6      32.5727
    1.13426e-6      32.5676
    1.13821e-6      32.5625
    1.14424e-6      32.5549
    1.15026e-6      32.5472
    1.15631e-6      32.5395
    1.16242e-6      32.5318
    1.16852e-6      32.5241
    1.17469e-6      32.5163
    1.18088e-6      32.5085
    1.18707e-6      32.5007
    1.19545e-6      32.4902
    1.20229e-6      32.4817
    1.20382e-6      32.4816
    1.21231e-6      32.4807
     1.2208e-6        32.48
    1.22941e-6      32.4792
    1.23005e-6      32.4791
    1.23803e-6      32.4877
    1.24676e-6       32.497
    1.25549e-6      32.5064
    1.26435e-6       32.516
    1.27321e-6      32.5256
    1.28668e-6      32.5403
    1.30028e-6      32.5552
      1.314e-6      32.5704
    1.32786e-6      32.5858
    1.34191e-6      32.6016
    1.35609e-6      32.6177
    1.36636e-6      32.6293
    1.37041e-6      32.6412
    1.38485e-6      32.6838
    1.39951e-6      32.7271
     1.4143e-6       32.771
    1.43425e-6      32.8304
    1.45449e-6      32.8908
    1.47501e-6      32.9525
    1.49582e-6      33.0153
    1.50714e-6      33.0496
    1.51692e-6      33.0963
    1.53832e-6      33.1988
    1.56002e-6      33.3032
    1.58203e-6      33.4093
    1.60435e-6      33.5174
    1.62699e-6      33.6274
    1.64994e-6      33.7394
    1.65079e-6      33.7435
    1.67322e-6      33.8926
    1.69683e-6      34.0499
    1.72076e-6      34.2099
    1.74504e-6      34.3728
    1.76966e-6      34.5386
    1.79463e-6      34.7074
    1.79555e-6      34.7136
    1.81995e-6      34.9235
    1.84562e-6       35.145
    1.87166e-6      35.3704
    1.91136e-6      35.7157
    1.93942e-6       35.961
      1.952e-6      36.0954
    1.99341e-6      36.5397
    2.03579e-6      36.9969
    2.07897e-6      37.4654
    2.08014e-6      37.4781
    2.12318e-6      38.0375
    2.16821e-6      38.6262
    2.21431e-6      39.2325
    2.21545e-6      39.2476
    2.26128e-6      39.9575
    2.30936e-6      40.7068
    2.34314e-6      41.2369
    2.35835e-6      41.5121
    2.40849e-6      42.4256
    2.45958e-6      43.3629
    2.46096e-6      43.3884
    2.49428e-6      44.0879
    2.52947e-6      44.8303
    2.56515e-6       45.587
     2.5666e-6      45.6177
    2.60134e-6      46.4572
    2.63804e-6      47.3484
    2.67526e-6      48.2572
    2.67677e-6      48.2942
      2.713e-6      49.2989
    2.75128e-6      50.3662
    2.77211e-6      50.9508
     2.7901e-6      51.5183
    2.82946e-6      52.7676
    2.86938e-6      54.0423
    2.87099e-6      54.0942
    2.90986e-6      55.4855
    2.95091e-6      56.9645
    2.95257e-6      57.0248
    2.99254e-6      58.6361
    3.03476e-6      60.3503
    3.03647e-6      60.4202
    3.07758e-6      62.3003
      3.121e-6      64.3013
    3.12275e-6      64.3829
    3.16503e-6      66.5581
    3.18899e-6      67.8014
    3.20968e-6      68.9795
    3.25496e-6      71.5798
     3.2568e-6      71.6859
    3.30089e-6      74.5036
    3.32588e-6      76.1158
    3.34746e-6        77.66
    3.39468e-6      81.0717
    3.39659e-6       81.211
     3.4306e-6      83.9779
    3.46686e-6      86.9507
    3.46864e-6       87.098
    3.50346e-6      90.2666
    3.51758e-6      91.5625
     3.5404e-6      93.8347
     3.5672e-6      96.5267
    3.57786e-6      97.6922
    3.61567e-6      101.865
    3.61753e-6      102.071
    3.65384e-6      106.493
    3.66857e-6      108.304
    3.69237e-6      111.519
    3.72032e-6      115.332
    3.73144e-6      117.006
    3.77087e-6      123.006
    3.77281e-6      123.304
    3.81068e-6      129.679
    3.81273e-6      130.029
    3.85086e-6      137.072
    3.85303e-6      137.477
    3.89161e-6      145.327
     3.8937e-6      145.758
    3.91896e-6      151.432
    3.93476e-6      155.011
    3.94651e-6      157.933
    3.97425e-6      164.891
    3.97639e-6      165.433
    4.00219e-6      172.631
    4.01842e-6      177.203
    4.03032e-6      180.919
    4.05865e-6      189.846
    4.06084e-6      190.541
    4.08718e-6      199.707
    4.08938e-6       200.48
    4.11591e-6      210.529
    4.11813e-6      211.377
    4.14485e-6      222.428
    4.14708e-6      223.362
    4.17398e-6      235.557
    4.17623e-6      236.588
    4.20332e-6      250.096
    4.20558e-6      251.238
    4.23287e-6      266.259
    4.23515e-6      267.528
    4.25513e-6      279.707
    4.26492e-6       285.73
     4.2776e-6      294.311
     4.2949e-6      306.127
    4.30008e-6      309.983
    4.31754e-6      323.118
    4.32276e-6      327.359
    4.34018e-6       341.66
    4.34555e-6      346.433
    4.36314e-6      362.252
    4.36834e-6       367.33
    4.38611e-6      384.895
    4.39145e-6      390.657
    4.40918e-6      409.998
    4.41456e-6      416.428
    4.43246e-6      438.069
    4.43778e-6       445.13
    4.45575e-6       469.29
    4.46122e-6      477.396
    4.47684e-6      500.808
    4.47925e-6      504.455
    4.49247e-6      526.574
    4.50287e-6      544.156
    4.50831e-6      554.203
    4.51861e-6      573.397
    4.52416e-6      584.522
    4.53447e-6      605.408
       4.54e-6      617.517
    4.55043e-6       640.56
    4.55585e-6      653.516
     4.5664e-6      679.015
    4.57192e-6      693.496
    4.58236e-6      721.199
    4.58799e-6      737.434
    4.59844e-6      767.958
    4.60405e-6      785.863
    4.61463e-6      819.989
    4.62012e-6      839.414
    4.63082e-6      877.645
    4.63235e-6      883.642
    4.64457e-6      932.133
    4.64701e-6      941.929
    4.65679e-6      984.627
    4.65921e-6      995.314
    4.66901e-6         1042
    4.67152e-6      1054.11
    4.68123e-6      1104.71
    4.68384e-6      1118.46
    4.69357e-6      1174.12
    4.69615e-6      1189.09
    4.70596e-6      1250.88
    4.70846e-6      1266.85
    4.71836e-6      1335.68
    4.72078e-6      1352.77
    4.73075e-6      1429.74
    4.73327e-6      1449.45
    4.74314e-6      1534.43
    4.74576e-6      1557.22
     4.7556e-6      1651.99
    4.75824e-6       1677.8
    4.76398e-6      1738.63
    4.76657e-6      1766.42
    4.77235e-6      1832.97
    4.77489e-6      1862.48
    4.78073e-6      1935.44
    4.78322e-6      1966.83
    4.78911e-6      2046.92
    4.79125e-6      2076.31
    4.79749e-6      2168.52
    4.79899e-6      2190.96
    4.80587e-6      2301.61
    4.80673e-6      2315.66
    4.81425e-6      2447.64
    4.81448e-6      2451.65
    4.82146e-6      2585.74
    4.82222e-6      2600.52
    4.82996e-6      2763.72
    4.83051e-6      2776.37
     4.8377e-6      2943.48
    4.83956e-6      2990.73
    4.84544e-6      3141.51
     4.8456e-6       3145.9
    4.85155e-6      3312.97
    4.85164e-6      3315.46
    4.85767e-6       3500.2
    4.85828e-6      3518.88
    4.86371e-6      3701.37
      4.865e-6       3745.2
    4.87031e-6      3941.79
    4.87172e-6       3994.6
    4.87748e-6      4230.36
    4.87844e-6      4270.15
    4.88286e-6      4470.44
    4.88516e-6      4576.08
    4.88823e-6      4728.93
    4.89028e-6      4831.95
    4.89361e-6      5011.98
     4.8954e-6      5109.91
    4.89796e-6      5260.58
    4.90052e-6      5412.78
    4.90308e-6      5576.95
    4.90564e-6      5742.95
     4.9082e-6      5922.27
    4.91077e-6      6103.61
    4.91333e-6      6299.75
    4.91589e-6      6498.13
    4.91845e-6      6712.94
    4.92101e-6      6930.25
    4.92357e-6      7165.75
    4.92613e-6      7404.02
    4.92869e-6      7662.41
    4.93125e-6      7923.85
    4.93381e-6      8207.47
    4.93637e-6      8494.45
    4.93893e-6      8805.79
    4.94149e-6      9120.82
    4.94405e-6      9462.47
    4.94661e-6      9808.13
    4.94917e-6      10182.7
    4.95173e-6      10561.7
    4.95429e-6      10971.9
    4.95685e-6      11386.8
    4.95941e-6      11835.2
    4.96198e-6      12288.6
    4.96454e-6      12777.5
     4.9671e-6      13271.8
    4.96966e-6      13803.4
    4.97222e-6      14340.6
    4.97478e-6      14916.5
    4.97734e-6      15498.2
     4.9799e-6      16119.7
    4.98246e-6      16746.9
    4.98502e-6      17414.2
    4.98758e-6      18087.3
    4.99014e-6      18799.9
     4.9927e-6      19518.2
    4.99526e-6      20274.7
    4.99782e-6      21037.8
    5.00294e-6      22651.8
     5.0055e-6      23465.8
    5.01062e-6      25182.8
    5.01318e-6      26047.2
    5.02087e-6      28749.7
    5.03879e-6      35068.4
    5.04647e-6      37614.9
    5.05338e-6      39710.1
    5.05415e-6        39919
    5.05927e-6      41290.2
    5.05991e-6      41458.7
    5.06542e-6      42701.8
    5.06644e-6      42927.1
    5.07156e-6      43856.8
    5.07669e-6      44565.2
    5.08181e-6      45040.6
    5.08693e-6      45271.7
    5.08741e-6      45277.6
    5.08928e-6      45292.1
     5.0898e-6      45294.1
    5.09389e-6      45173.1
    5.09502e-6      45132.9
    5.09922e-6      44821.7
    5.09973e-6      44764.9
    5.10434e-6      44224.7
    5.10485e-6        44145
    5.10946e-6      43401.7
    5.11023e-6      43246.7
    5.11586e-6      42079.4
    5.11612e-6      42025.1
    5.12124e-6      40733.3
    5.12277e-6      40338.4
    5.12892e-6        38542
    5.13046e-6      38086.1
     5.1366e-6      36090.6
    5.13814e-6      35586.9
    5.14684e-6      32553.2
    5.15094e-6      31121.4
    5.16374e-6      26607.1
    5.16477e-6      26258.6
    5.17142e-6      24007.1
    5.17245e-6      23677.3
    5.17911e-6      21549.7
    5.18013e-6      21239.1
    5.18423e-6      20006.6
    5.18525e-6      19713.3
    5.18935e-6      18548.5
    5.19037e-6      18272.7
    5.19447e-6      17178.7
    5.19549e-6        16921
    5.19959e-6      15899.2
    5.20061e-6      15659.5
    5.20471e-6      14709.9
    5.20573e-6        14488
    5.20983e-6      13609.2
    5.21086e-6      13404.6
    5.21495e-6      12594.5
    5.21598e-6      12406.3
    5.22007e-6      11661.9
     5.2211e-6      11489.3
    5.22519e-6        10807
    5.22622e-6      10649.2
    5.23032e-6      10025.1
    5.23134e-6      9880.93
    5.23544e-6      9311.01
    5.23646e-6      9179.48
    5.24056e-6      8659.59
    5.24158e-6      8539.68
    5.24568e-6      8065.73
     5.2467e-6      7956.43
     5.2508e-6      7524.46
    5.25182e-6      7424.82
    5.25592e-6      7031.05
    5.25694e-6      6940.19
    5.26104e-6      6581.05
    5.26207e-6      6498.13
    5.26616e-6      6170.33
    5.26719e-6      6094.58
    5.27128e-6      5795.06
    5.27231e-6      5725.77
     5.2764e-6      5451.76
    5.27743e-6      5388.29
    5.28153e-6      5137.25
    5.28255e-6      5079.02
    5.28665e-6      4848.64
    5.28754e-6      4802.02
    5.29241e-6      4551.63
    5.29254e-6      4545.55
    5.29817e-6      4281.32
    5.29919e-6      4236.91
    5.30393e-6      4034.29
    5.30585e-6      3958.22
    5.30969e-6      3807.95
     5.3118e-6      3731.27
    5.31545e-6      3600.52
    5.31968e-6      3461.24
    5.32288e-6       3357.2
    5.32755e-6      3219.23
    5.33114e-6      3114.82
    5.33542e-6      3001.54
    5.33939e-6      2898.08
     5.3433e-6      2805.44
    5.34765e-6      2703.49
    5.35117e-6      2628.18
    5.35591e-6      2528.14
    5.35949e-6      2457.81
    5.36141e-6       2420.6
    5.36781e-6      2305.11
    5.36973e-6      2270.88
    5.37614e-6      2165.93
    5.37806e-6       2134.8
    5.38446e-6      2039.14
    5.38638e-6      2010.76
    5.39278e-6       1923.3
     5.3947e-6      1897.35
     5.4011e-6      1817.18
    5.40302e-6      1793.38
    5.40942e-6      1719.71
    5.41134e-6      1697.83
    5.41774e-6      1629.96
    5.41966e-6      1609.81
     5.4273e-6      1535.14
    5.42799e-6      1528.48
    5.43685e-6      1448.73
    5.43756e-6      1442.45
    5.44641e-6      1369.48
    5.44713e-6      1363.57
    5.45596e-6      1296.62
     5.4567e-6      1291.05
    5.46552e-6      1229.48
    5.46628e-6      1224.23
    5.47507e-6      1167.49
    5.47585e-6      1162.53
     5.4894e-6      1083.11
    5.49021e-6      1078.46
    5.50387e-6       1006.9
    5.50457e-6      1003.29
     5.5184e-6      938.276
    5.51913e-6      934.914
    5.53294e-6      876.528
    5.53369e-6      873.387
    5.54747e-6      820.766
    5.54825e-6      817.824
      5.562e-6       770.24
    5.56281e-6       767.48
     5.5766e-6      724.101
    5.57737e-6      721.718
    5.59134e-6      681.684
    5.59207e-6      679.628
    5.60608e-6      642.965
    5.60684e-6      641.015
    5.62082e-6      607.522
     5.6216e-6       605.67
    5.63556e-6      574.998
    5.63637e-6      573.238
     5.6503e-6      545.082
    5.65114e-6      543.407
    5.66524e-6      517.425
    5.67096e-6          507
    5.68019e-6       491.66
    5.69093e-6      474.016
    5.70012e-6      460.205
     5.7109e-6       444.22
    5.72005e-6      431.765
    5.73086e-6      417.234
    5.74012e-6      405.797
    5.75097e-6      392.551
    5.76033e-6      382.028
    5.77122e-6      369.928
    5.78054e-6       360.37
    5.79147e-6      349.292
    5.80075e-6      340.589
    5.81171e-6      330.423
     5.8211e-6       322.36
    5.83211e-6      313.013
     5.8416e-6      305.532
    5.85264e-6      296.921
    5.86209e-6       290.07
    5.87317e-6      282.122
    5.88259e-6       275.94
    5.90323e-6      262.525
    5.90397e-6      262.043
    5.92401e-6      250.414
    5.93521e-6      243.978
     5.9448e-6      238.995
    5.96558e-6      228.295
    5.96645e-6      227.854
    5.98651e-6      218.572
    5.99783e-6      213.386
    6.00759e-6      209.319
    6.02867e-6      200.619
     6.0295e-6      200.276
    6.04974e-6      192.731
    6.06118e-6      188.505
    6.07097e-6      185.202
    6.09315e-6      177.798
    6.10303e-6      174.781
    6.12528e-6      168.075
    6.13509e-6      165.362
     6.1574e-6      159.275
    6.16746e-6      156.755
    6.18998e-6      151.183
    6.19997e-6      148.909
    6.22255e-6      143.835
    6.23249e-6      141.807
    6.26546e-6      135.157
    6.26629e-6      134.991
    6.29843e-6      129.244
    6.31034e-6       127.14
    6.33156e-6      123.769
     6.3547e-6      120.137
      6.365e-6      118.682
    6.39844e-6      114.014
    6.39937e-6      113.886
    6.43219e-6      109.807
    6.44435e-6      108.313
     6.4661e-6      105.907
    6.48965e-6      103.332
    6.50001e-6      102.311
    6.52294e-6      100.075
    6.53527e-6       98.882
    6.54587e-6      97.9593
    6.56879e-6      95.9791
    6.58121e-6       94.915
    6.59172e-6      94.1056
    6.61497e-6        92.33
    6.62747e-6      91.3827
    6.63822e-6      90.6719
    6.66147e-6      89.1476
    6.68471e-6      87.6365
    6.69735e-6      86.8221
    6.70829e-6      86.2275
    6.73187e-6      84.9587
    6.75545e-6      83.7016
    6.76822e-6      83.0269
    6.77902e-6      82.5516
    6.80166e-6      81.5667
    6.82429e-6      80.5916
    6.83975e-6      79.9317
    6.84692e-6      79.6822
    6.86955e-6      78.9034
    6.88875e-6      78.2495
    6.90796e-6       77.602
    6.91195e-6      77.4684
    6.92716e-6      77.0672
    6.94636e-6      76.5665
    6.96237e-6      76.1537
    6.97837e-6       75.745
    6.98483e-6      75.5815
    6.99437e-6      75.3985
    7.00637e-6      75.1708
    7.01998e-6      74.9153
    7.03278e-6      74.6775
    7.04558e-6       74.442
      7.052e-6      74.3253
    7.05838e-6      74.2481
    7.06639e-6      74.1526
    7.07599e-6      74.0393
    7.08559e-6      73.9273
    7.09519e-6      73.8167
    7.10479e-6      73.7074
    7.11439e-6      73.5994
     7.1216e-6      73.5193
     7.1288e-6      73.4399
      7.136e-6      73.3613
     7.1384e-6      73.3353
    7.14201e-6      73.3188
    7.14923e-6      73.2864
    7.15645e-6      73.2547
    7.16367e-6      73.2238
     7.1706e-6      73.1949
    7.17725e-6      73.1677
    7.18224e-6      73.1478
    7.18722e-6      73.1282
    7.19221e-6      73.1089
    7.19726e-6      73.0898
    7.20235e-6      73.0709
    7.20744e-6      73.0524
    7.21253e-6      73.0342
    7.21763e-6      73.0164
    7.22102e-6      73.0048
    7.22264e-6      73.0091
    7.22751e-6      73.0222
    7.23239e-6      73.0357
    7.23726e-6      73.0495
    7.24213e-6      73.0636
      7.247e-6      73.0781
    7.25081e-6      73.0897
    7.25483e-6      73.1021
    7.25885e-6      73.1148
    7.26287e-6      73.1277
    7.26689e-6      73.1408
    7.27112e-6      73.1549
    7.27577e-6      73.1707
    7.28043e-6      73.1868
    7.28508e-6      73.2032
    7.28974e-6        73.22
    7.29439e-6       73.237
    7.29947e-6       73.256
    7.30455e-6      73.2753
    7.30963e-6      73.2951
    7.31245e-6      73.3062
     7.3147e-6      73.3272
    7.31978e-6      73.3748
    7.32486e-6      73.4228
    7.33163e-6      73.4874
     7.3384e-6      73.5527
    7.34517e-6      73.6186
    7.35251e-6      73.6908
    7.36041e-6      73.7695
    7.36831e-6      73.8492
     7.3762e-6      73.9298
    7.38015e-6      73.9706
    7.38523e-6      74.0489
    7.39285e-6      74.1673
      7.403e-6      74.3265
    7.41316e-6      74.4874
     7.4236e-6      74.6545
    7.43488e-6       74.837
    7.44617e-6      75.0216
    7.45463e-6      75.1615
    7.46592e-6      75.3497
    7.47946e-6      75.6581
      7.493e-6      75.9696
    7.50654e-6      76.2843
    7.52008e-6      76.6021
    7.53362e-6      76.9231
    7.54716e-6      77.2475
    7.55619e-6      77.4663
    7.56522e-6       77.738
    7.58327e-6      78.2876
    7.59794e-6      78.7387
    7.61487e-6      79.2643
     7.6318e-6      79.7956
    7.63614e-6      79.9336
    7.64872e-6      80.4059
    7.67129e-6      81.2625
    7.69386e-6      82.1301
    7.71643e-6      83.0089
    7.71685e-6      83.0255
      7.739e-6      84.0386
    7.76157e-6      85.0831
    7.78639e-6      86.2465
    7.79831e-6       86.813
    7.81347e-6      87.6383
    7.84056e-6      89.1321
    7.86764e-6      90.6466
    7.88054e-6      91.3782
    7.89508e-6      92.3154
    7.92288e-6      94.1306
    7.95067e-6      95.9712
    7.96392e-6      96.8611
    7.97847e-6      97.9659
    8.00646e-6       100.12
    8.03465e-6       102.32
    8.04809e-6      103.384
    8.06284e-6      104.674
    8.09103e-6      107.173
    8.10446e-6      108.382
    8.11942e-6      109.839
    8.14801e-6      112.664
    8.16163e-6      114.031
    8.17659e-6      115.656
    8.20518e-6      118.807
     8.2188e-6      120.332
    8.23397e-6       122.17
    8.26296e-6      125.735
    8.27678e-6      127.462
    8.29195e-6      129.516
    8.32094e-6      133.501
    8.33476e-6      135.431
    8.35014e-6      137.762
    8.37954e-6       142.29
    8.39355e-6      144.485
    8.40894e-6      147.104
    8.43834e-6      152.192
    8.45234e-6      154.659
    8.46794e-6       157.65
    8.49776e-6      163.465
    8.51197e-6      166.289
    8.52757e-6      169.671
    8.55739e-6      176.249
    8.57159e-6      179.445
    8.58741e-6      183.289
    8.61694e-6      190.603
    8.61765e-6       190.79
    8.64788e-6      198.972
    8.66229e-6      202.952
    8.67811e-6      207.645
    8.70785e-6      216.645
    8.70856e-6      216.877
    8.73923e-6      227.078
    8.75384e-6      232.051
    8.76989e-6      237.936
    8.79983e-6      249.164
    8.80055e-6      249.456
    8.83143e-6       262.26
    8.84625e-6      268.559
    8.86252e-6      276.047
    8.89289e-6       290.37
    8.89361e-6      290.743
    8.92471e-6      307.083
    8.93952e-6       315.08
    8.95602e-6      324.637
    8.97105e-6      333.587
    8.98755e-6      344.007
    9.00258e-6      353.736
     9.0112e-6      359.663
    9.03411e-6      375.761
    9.03485e-6      376.313
     9.0585e-6      394.389
    9.06564e-6      399.976
    9.08237e-6      413.924
    9.09762e-6      426.938
    9.10636e-6      434.907
     9.1296e-6      456.613
    9.13034e-6      457.359
    9.15432e-6      481.938
    9.16157e-6      489.561
    9.17831e-6      508.437
    9.19354e-6      526.083
     9.2024e-6       537.12
    9.22597e-6      567.286
    9.22672e-6      568.318
    9.25029e-6      601.467
    9.25105e-6      602.595
    9.27461e-6      638.777
    9.27537e-6      640.014
    9.29893e-6      679.603
    9.29969e-6      680.962
    9.32325e-6      724.394
    9.32401e-6      725.892
    9.34791e-6      774.402
    9.34868e-6       776.06
    9.36512e-6      812.726
    9.37257e-6      829.747
    9.38156e-6      851.708
    9.39724e-6      890.923
    9.39801e-6      892.986
    9.41445e-6      938.203
     9.4219e-6      959.221
    9.43089e-6       986.49
    9.44656e-6      1035.24
    9.44733e-6      1037.83
    9.46278e-6      1090.96
    9.47113e-6      1120.42
    9.47723e-6      1143.34
    9.48748e-6      1182.84
    9.49167e-6      1199.87
    9.50383e-6       1250.5
    9.50612e-6      1260.58
    9.52018e-6         1324
    9.52057e-6      1325.85
    9.53501e-6      1396.61
    9.53653e-6      1404.24
    9.54946e-6      1473.16
    9.55287e-6      1491.89
     9.5639e-6      1556.01
    9.56922e-6      1587.81
    9.57745e-6      1640.05
    9.58557e-6      1693.05
    9.59009e-6      1724.29
    9.60002e-6      1794.83
    9.60272e-6       1815.2
    9.61446e-6      1905.88
    9.61536e-6      1913.28
      9.628e-6      2019.75
     9.6289e-6      2027.58
    9.64064e-6      2135.66
    9.64335e-6      2161.37
    9.65328e-6      2261.62
    9.65779e-6      2308.62
    9.66592e-6       2398.8
    9.67224e-6      2471.08
     9.6772e-6      2531.77
    9.68668e-6       2650.8
    9.68713e-6      2656.88
    9.69706e-6      2793.99
    9.70112e-6      2851.64
    9.70699e-6      2940.83
    9.71467e-6      3060.73
    9.71692e-6      3098.54
    9.72685e-6      3269.62
    9.72821e-6      3293.66
    9.73678e-6      3457.14
    9.74175e-6      3554.73
    9.74671e-6      3659.86
    9.75529e-6      3846.77
    9.75538e-6      3848.87
    9.76432e-6       4063.3
    9.76648e-6      4118.15
    9.77334e-6      4298.33
    9.77759e-6       4416.5
    9.78364e-6      4591.57
    9.78869e-6      4747.61
    9.79393e-6      4914.64
    9.79609e-6      4988.52
     9.8035e-6      5247.83
    9.80422e-6      5273.88
     9.8109e-6      5531.64
    9.81451e-6      5675.71
    9.82029e-6      5923.01
     9.8248e-6      6122.71
    9.82733e-6      6241.58
    9.83184e-6      6460.08
    9.83437e-6      6588.95
    9.83906e-6      6835.47
    9.84141e-6      6965.52
    9.84629e-6      7243.91
    9.84845e-6      7374.61
    9.85351e-6      7689.23
    9.85567e-6      7831.82
    9.86073e-6      8175.41
     9.8629e-6      8331.27
    9.86795e-6      8707.08
    9.87012e-6      8877.71
    9.87517e-6      9289.34
    9.87734e-6      9476.36
     9.8824e-6      9927.77
    9.88456e-6        10133
    9.88962e-6      10628.5
    9.89178e-6      10853.8
    9.89684e-6      11398.1
    9.89901e-6      11645.7
    9.90406e-6      12243.7
    9.90623e-6      12515.8
    9.91128e-6      13172.8
    9.91345e-6      13471.6
    9.91851e-6      14193.2
    9.92067e-6      14521.1
    9.92573e-6      15312.9
     9.9279e-6      15672.3
    9.93295e-6      16539.8
    9.93512e-6      16933.1
    9.94017e-6      17881.6
    9.94234e-6      18310.9
    9.94739e-6      19345.5
    9.94956e-6      19812.9
    9.95462e-6      20937.8
    9.95678e-6      21444.8
    9.96184e-6      22663.5
      9.964e-6      23211.2
    9.96906e-6      24525.8
    9.97123e-6      25114.8
    9.97628e-6      26525.9
    9.97845e-6        27156
     9.9835e-6      28662.3
    9.98567e-6      29332.2
    9.99073e-6      30930.1
    9.99289e-6      31642.8
    1.00016e-5      34562.4
    1.00037e-5      35320.5
    1.00124e-5      38422.1
    1.00146e-5      39219.7
    1.00485e-5      51935.1
    1.00507e-5      52715.3
    1.00593e-5        55762
    1.00615e-5      56482.6
    1.00691e-5      58912.7
    1.00723e-5      59874.4
    1.00788e-5      61709.4
    1.00796e-5      61895.4
    1.00853e-5      63302.4
    1.00875e-5      63777.9
    1.00926e-5      64803.5
    1.00954e-5      65309.5
    1.00998e-5      65992.6
    1.01027e-5      66362.1
     1.0107e-5        66839
    1.01099e-5      67066.9
    1.01142e-5      67329.6
    1.01168e-5      67415.2
    1.01196e-5      67464.2
    1.01213e-5      67445.7
    1.01271e-5        67291
     1.0129e-5      67183.4
     1.0133e-5      66885.3
    1.01352e-5      66663.6
    1.01402e-5      66060.5
    1.01424e-5      65738.9
    1.01474e-5      64896.2
    1.01503e-5      64325.7
    1.01568e-5      62923.3
     1.0159e-5      62389.6
    1.01662e-5      60493.9
    1.01669e-5      60284.9
    1.01771e-5      57205.3
    1.01778e-5      56969.8
    1.01879e-5      53538.1
    1.01886e-5      53281.6
    1.02059e-5      46945.7
    1.02067e-5      46680.5
    1.02276e-5      38946.5
    1.02283e-5      38688.5
    1.02384e-5      35139.3
    1.02392e-5      34895.4
    1.02493e-5        31556
      1.025e-5      31326.8
    1.02565e-5      29312.4
    1.02572e-5      29096.7
    1.02637e-5      27197.1
    1.02644e-5      26994.4
    1.02709e-5      25213.6
    1.02717e-5      25024.1
    1.02782e-5      23363.6
    1.02789e-5      23187.5
    1.02854e-5      21646.2
    1.02861e-5      21483.2
    1.02926e-5      20058.5
    1.02933e-5      19908.1
    1.02998e-5      18595.8
    1.03006e-5      18457.5
     1.0307e-5      17252.1
    1.03078e-5      17125.2
    1.03143e-5      16020.7
     1.0315e-5      15904.6
    1.03215e-5      14894.4
    1.03222e-5      14788.2
    1.03287e-5      13865.4
    1.03294e-5      13768.5
    1.03359e-5      12926.2
    1.03367e-5      12837.8
    1.03432e-5      12069.4
    1.03439e-5      11988.7
    1.03504e-5      11287.7
    1.03511e-5      11214.1
    1.03576e-5      10574.3
    1.03583e-5      10507.1
    1.03648e-5      9922.87
    1.03655e-5      9861.45
     1.0372e-5       9327.4
    1.03728e-5      9271.21
    1.03793e-5      8782.47
      1.038e-5         8731
    1.03865e-5      8283.13
    1.03872e-5      8235.91
    1.03937e-5      7827.09
     1.0397e-5      7634.21
    1.04027e-5      7304.32
    1.04045e-5      7207.25
    1.04109e-5      6880.23
    1.04147e-5      6694.62
     1.0419e-5      6491.28
    1.04248e-5      6234.55
    1.04271e-5      6134.39
    1.04349e-5      5820.36
    1.04352e-5      5806.34
     1.0445e-5         5449
    1.04463e-5      5405.18
    1.04537e-5      5159.59
    1.04576e-5       5034.4
    1.04623e-5       4892.5
     1.0469e-5      4700.47
     1.0471e-5      4645.61
    1.04797e-5      4417.72
    1.04804e-5      4399.79
    1.04918e-5      4128.51
    1.04927e-5      4107.72
    1.05019e-5      3909.76
    1.05057e-5      3831.11
    1.05145e-5      3658.36
    1.05163e-5      3624.44
    1.05271e-5      3432.26
    1.05289e-5       3401.4
    1.05398e-5      3227.05
    1.05416e-5      3199.02
    1.05524e-5      3040.34
    1.05542e-5       3014.8
    1.05651e-5      2869.92
    1.05669e-5      2846.58
    1.05777e-5      2713.93
    1.05795e-5      2692.54
    1.05903e-5      2570.76
    1.05921e-5      2551.14
    1.06048e-5      2420.67
    1.06183e-5      2292.77
     1.0621e-5      2268.48
    1.06328e-5      2167.33
    1.06373e-5       2130.4
    1.06472e-5      2052.22
    1.06535e-5      2004.92
    1.06616e-5      1946.31
    1.06698e-5      1890.53
    1.06761e-5      1848.66
     1.0686e-5      1785.96
    1.06905e-5      1758.42
    1.07023e-5      1690.86
    1.07122e-5         1636
    1.07266e-5      1560.62
    1.07447e-5      1474.62
    1.07628e-5      1395.82
    1.07808e-5      1324.02
    1.07898e-5      1289.84
    1.07989e-5       1257.3
    1.08169e-5      1195.28
     1.0835e-5      1138.81
     1.0844e-5       1112.1
    1.08621e-5      1061.08
    1.08711e-5       1037.2
    1.08903e-5      988.737
    1.08998e-5       966.04
     1.0919e-5      922.648
    1.09286e-5      902.282
    1.09478e-5      863.282
    1.09574e-5      844.931
    1.09765e-5      809.735
    1.09861e-5      793.137
    1.10053e-5       761.26
    1.10149e-5      746.198
    1.10342e-5      717.039
    1.10439e-5      703.146
    1.10633e-5      676.575
    1.10828e-5        651.4
    1.10925e-5      639.415
    1.11217e-5       605.31
    1.11508e-5      574.389
    1.11606e-5      564.567
      1.118e-5      545.809
    1.11997e-5      527.669
    1.12096e-5       518.99
    1.12391e-5      494.146
    1.12786e-5      464.037
     1.1318e-5      436.785
    1.13577e-5       411.87
    1.13977e-5      389.035
    1.14377e-5      368.195
    1.14777e-5      349.292
    1.14977e-5       340.29
     1.1518e-5      331.648
    1.15585e-5       315.18
    1.15991e-5      300.273
    1.16193e-5      293.145
    1.16396e-5      286.373
    1.16805e-5      273.323
    1.17216e-5      261.343
    1.17421e-5      255.652
    1.17833e-5       244.81
    1.18038e-5      239.703
    1.18452e-5      229.891
    1.18661e-5      225.226
    1.19078e-5      216.253
    1.19704e-5      204.074
    1.19912e-5      200.225
    1.20335e-5      192.861
    1.20758e-5      185.876
    1.20969e-5      182.573
    1.21604e-5      173.162
    1.22247e-5      164.547
    1.22462e-5      161.804
    1.22891e-5      156.597
    1.23319e-5      151.621
    1.23537e-5      149.223
    1.24189e-5      142.344
    1.24842e-5      136.075
    1.25059e-5      134.071
      1.255e-5      130.198
    1.25941e-5      126.505
    1.26383e-5      122.982
    1.26824e-5      119.639
    1.27271e-5      116.437
    1.28166e-5      110.352
    1.29067e-5      104.894
     1.2952e-5      102.272
    1.29974e-5      99.8145
    1.30887e-5      95.0883
    1.31807e-5       90.812
    1.32267e-5      88.7631
    1.32734e-5      86.8079
    1.33667e-5      83.0591
    1.34607e-5      79.6423
     1.3508e-5      77.9877
    1.35553e-5      76.4257
    1.36506e-5       73.399
    1.37465e-5      70.6226
    1.37945e-5      69.2832
    1.38432e-5      68.0084
    1.39405e-5      65.5485
    1.39891e-5      64.3594
    1.40385e-5      63.2375
    1.41371e-5      61.0711
    1.41865e-5      60.0303
    1.42866e-5      58.0597
    1.43866e-5      56.1765
    1.44374e-5      55.2821
    1.45896e-5      52.7197
     1.4744e-5      50.3898
    1.47954e-5      49.6449
    1.48998e-5       48.228
    1.50042e-5      46.8678
    1.50571e-5      46.2195
    1.52158e-5      44.3511
    1.53768e-5      42.6351
    1.54305e-5      42.0836
    1.55394e-5       41.045
    1.57034e-5      39.5356
    1.57586e-5      39.0447
     1.5869e-5      38.1448
    1.60369e-5      36.8221
    1.60929e-5       36.395
    1.62064e-5      35.5992
    1.63775e-5       34.438
     1.6435e-5      34.0589
    1.65501e-5      33.3607
    1.67253e-5      32.3305
    1.67836e-5      31.9967
     1.6902e-5      31.3721
    1.71405e-5      30.1554
    1.73823e-5      29.0576
    1.75041e-5      28.5234
    1.76275e-5      28.0209
    1.78762e-5      27.0428
    1.81284e-5      26.1628
    1.83842e-5      25.2984
    1.86436e-5      24.5272
    1.89066e-5      23.7681
    1.91733e-5      23.0893
    1.94438e-5       22.419
    1.97182e-5      21.8153
    1.99963e-5       21.219
    2.02785e-5      20.6865
    2.05645e-5      20.1598
    2.07086e-5      19.9007
    2.08547e-5      19.6652
    2.11489e-5      19.2024
    2.14473e-5      18.7431
    2.17498e-5      18.3345
    2.20567e-5      17.9289
    2.22112e-5      17.7288
    2.23679e-5      17.5462
    2.26835e-5      17.1859
    2.30035e-5      16.8276
     2.3328e-5      16.5104
    2.36571e-5      16.1937
    2.39909e-5      15.8798
    2.41589e-5      15.7393
    2.46726e-5      15.3215
    2.50207e-5      15.0439
    2.55514e-5       14.676
    2.59119e-5      14.4309
    2.60947e-5      14.3089
    2.64628e-5      14.0918
    2.70242e-5      13.7683
    2.74054e-5      13.5529
    2.75987e-5      13.4571
    2.81842e-5      13.1731
    2.87834e-5      12.8881
    2.93939e-5      12.6374
    3.00189e-5      12.3853
    3.02292e-5      12.3019
    3.06557e-5      12.1541
    3.13075e-5      11.9319
    3.19716e-5      11.7091
    3.26513e-5      11.5139
    3.33439e-5       11.318
    3.38143e-5      11.1868
    3.40529e-5      11.1292
    3.47752e-5      10.9575
    3.55146e-5       10.784
    3.60156e-5      10.6681
    3.62679e-5      10.6182
     3.7039e-5      10.4673
    3.78247e-5      10.3154
    3.86289e-5      10.1616
    3.97266e-5      9.98549
    4.05692e-5       9.8519
    4.14318e-5      9.71648
    4.23106e-5      9.60064
    4.32102e-5       9.4832
    4.41268e-5       9.3646
    4.47494e-5      9.28469
     4.5065e-5      9.25041
    4.60209e-5      9.14751
    4.69994e-5      9.04303
    4.79963e-5      8.93737
    4.83349e-5      8.90173
    4.90168e-5      8.84116
    5.00566e-5      8.74948
    5.14789e-5      8.62505
    5.25735e-5      8.53002
    5.40674e-5       8.4222
    5.56037e-5      8.31225
    5.71837e-5      8.19998
    5.75843e-5      8.17171
    5.88086e-5      8.09997
    6.00561e-5      8.02741
     6.1333e-5      7.95339
    6.30758e-5      7.85296
    6.35176e-5      7.82763
    6.48681e-5      7.76317
    6.67114e-5      7.67571
     6.8607e-5      7.58624
    7.00623e-5      7.51789
    7.05565e-5      7.49852
    7.25614e-5      7.42037
    7.46232e-5      7.34037
    7.62061e-5      7.27918
    7.78264e-5      7.21676
    7.83716e-5       7.1993
    8.00379e-5      7.14612
    8.23122e-5      7.07379
    8.46511e-5      6.99967
    8.70565e-5       6.9237
    8.95303e-5      6.85869
    9.14294e-5      6.80892
    9.40274e-5      6.74102
    9.66992e-5      6.67139
    9.80635e-5      6.63593
   0.000100148      6.59039
   0.000102994      6.52845
   0.000105921      6.46489
   0.000109694      6.38316
   0.000111241      6.34972
   0.000112811      6.32086
   0.000116016      6.26206
   0.000120155      6.18633
   0.000124434      6.10819
   0.000128873      6.02733
   0.000133463       5.9524
   0.000138224      5.87487
   0.000143147      5.79486
   0.000147058      5.73143
   0.000152303      5.64652
   0.000154378      5.61299
   0.000158765      5.54221
   0.000162141      5.48785
    0.00016558      5.43257
     0.0001691      5.37611
   0.000171559      5.33676
   0.000172687      5.31606
   0.000175124      5.27143
   0.000177594      5.22625
     0.0001801      5.18053
   0.000182641      5.13427
   0.000184224      5.10552
   0.000185217      5.08426
   0.000187603      5.03334
   0.000189855       4.9854
   0.000192108       4.9376
   0.000193234      4.91378
    0.00019436      4.88563
   0.000196613      4.82951
   0.000199429      4.75968
   0.000199992      4.74578
   0.000201118      4.71279
   0.000202807      4.66349
   0.000204497      4.61439
   0.000205623      4.58181
   0.000206186      4.56256
   0.000207876      4.50509
   0.000209565      4.44792
   0.000210128      4.42899
   0.000211254      4.38388
   0.000212381        4.339
   0.000213507      4.29433
   0.000214633      4.24991
   0.000215759      4.19725
   0.000216886       4.1449
   0.000218012      4.09288
   0.000219138      4.03155
   0.000220264      3.97066
   0.000221391      3.91028
   0.000222517      3.84021
   0.000223362       3.7881
   0.000223643      3.77088
   0.000224181      3.73308
   0.000224987      3.67682
   0.000225794      3.62106
   0.000226511      3.56417
   0.000227227      3.50779
   0.000227944      3.45198
   0.000228661      3.38785
   0.000229535      3.31066
   0.000229826      3.28527
   0.000230117      3.25656
     0.0002307      3.19977
   0.000230991      3.17173
   0.000231327      3.13569
   0.000231999      3.06462
   0.000232335      3.02968
   0.000232671       2.9902
   0.000233343      2.91259
   0.000233679      2.87454
   0.000233993      2.83425
    0.00023462      2.75531
   0.000234933      2.71663
    0.00023509      2.69497
   0.000235561      2.63114
   0.000235874      2.58945
   0.000236031      2.56637
   0.000236502      2.49858
   0.000236815       2.4545
   0.000236972      2.42997
   0.000237442      2.35828
   0.000237756      2.31191
   0.000237913      2.28648
   0.000238383      2.21262
   0.000238854      2.13581
    0.00023901      2.11129
   0.000239324      2.05773
   0.000239638      2.00622
   0.000239795       1.9814
   0.000239951      1.95425
   0.000240265      1.90203
   0.000240422      1.87707
   0.000240579      1.85006
   0.000240892      1.79863
   0.000241049      1.77437
   0.000241206      1.74809
   0.000241575      1.69036
   0.000241743      1.66645
   0.000241945      1.63553
   0.000242191      1.60107
   0.000242438      1.56965
    0.00024246       1.5671
   0.000242684      1.54052
   0.000242931      1.51503
   0.000243177      1.49373
   0.000243446      1.47586
    0.00024348      1.47442
   0.000243715      1.46609
   0.000243804      1.46534
   0.000243984      1.46539
   0.000244028      1.46679
   0.000244208      1.47404
   0.000244252      1.47626
   0.000244342      1.48393
   0.000244476      1.49669
   0.000244521      1.50141
   0.000244588       1.5111
   0.000244678      1.52487
   0.000244756       1.5377
   0.000244779      1.54228
   0.000244863      1.56033
   0.000244936      1.57672
   0.000244975      1.58593
   0.000245006      1.59454
   0.000245062      1.61072
   0.000245126      1.62996
   0.000245182      1.64727
   0.000245193      1.65083
   0.000245227      1.66316
   0.000245272      1.67999
   0.000245316      1.69722
    0.00024535      1.71043
   0.000245384      1.72387
   0.000245395      1.72844
   0.000245417      1.73881
   0.000245451      1.75463
   0.000245484      1.77073
   0.000245517      1.78642
   0.000245546      1.80098
   0.000245566      1.81082
   0.000245592      1.82434
   0.000245608      1.83227
   0.000245613      1.83552
   0.000245634      1.84782
   0.000245652       1.8586
   0.000245675      1.87199
   0.000245696      1.88468
   0.000245715      1.89666
   0.000245734      1.90789
    0.00024575      1.91835
   0.000245767      1.92891
   0.000245784      1.93956
     0.0002458      1.94986
   0.000245816       1.9598
    0.00024582      1.96299
   0.000245831      1.97055
   0.000245849      1.98378
   0.000245867      1.99661
   0.000245888      2.01216
   0.000245904      2.02472
   0.000245921      2.03739
   0.000245938      2.05018
   0.000245955      2.06308
   0.000245974      2.07827
   0.000245994      2.09363
   0.000246005       2.1025
   0.000246013      2.10913
   0.000246032      2.12557
   0.000246051      2.14279
   0.000246073      2.16143
   0.000246093      2.18027
   0.000246117      2.20189
   0.000246143      2.22507
   0.000246168      2.24858
   0.000246168      2.24858
   0.000246187      2.26851
   0.000246217      2.29878
   0.000246246      2.32952
   0.000246269      2.35327
   0.000246291       2.3773
   0.000246313      2.40163
   0.000246325      2.41394
   0.000246336      2.42716
   0.000246364      2.46063
   0.000246392       2.4946
    0.00024642      2.52908
   0.000246448       2.5641
   0.000246481      2.60683
   0.000246515      2.65355
   0.000246549      2.70111
   0.000246582      2.74954
   0.000246621       2.8072
   0.000246649       2.8493
   0.000246661       2.8673
     0.0002467      2.93164
   0.000246739      2.99738
   0.000246777      3.06216
   0.000246795      3.09404
   0.000246815       3.1305
   0.000246852      3.20231
    0.00024689      3.27565
   0.000246928      3.35062
   0.000246941      3.37618
   0.000246969      3.43676
   0.000247011      3.52976
   0.000247053      3.62503
   0.000247095       3.7227
   0.000247109      3.75609
   0.000247137      3.82668
   0.000247179      3.93519
   0.000247221      4.04694
   0.000247235      4.08591
   0.000247291      4.24703
   0.000247333      4.37207
   0.000247347      4.41566
   0.000247405      4.60518
   0.000247445      4.73591
   0.000247456      4.77496
   0.000247506      4.95624
   0.000247557       5.1434
   0.000247607       5.3454
   0.000247657      5.55407
   0.000247669      5.60202
   0.000247708      5.77733
   0.000247758      6.01031
   0.000247781      6.11745
   0.000247809       6.2574
   0.000247859      6.51794
   0.000247893      6.69777
   0.000247909      6.79177
   0.000247965       7.1167
   0.000248005      7.35357
   0.000248024      7.47742
   0.000248083      7.86461
   0.000248117      8.09556
   0.000248142      8.27673
   0.000248201      8.71784
   0.000248229      8.93742
   0.000248259       9.1901
   0.000248318      9.69424
   0.000248341      9.89532
   0.000248377      10.2372
   0.000248436      10.8154
   0.000248453      10.9887
   0.000248495      11.4394
   0.000248537      11.9122
   0.000248553      12.1081
   0.000248612      12.8277
   0.000248621      12.9358
   0.000248671      13.6074
   0.000248705      14.0785
    0.00024873      14.4447
   0.000248786      15.3097
   0.000248789      15.3453
   0.000248847      16.3274
   0.000248867      16.6727
   0.000248904      17.3473
   0.000248948      18.1874
   0.000248959      18.4221
   0.000249015       19.588
   0.000249028      19.8866
    0.00024907      20.8544
   0.000249109      21.7957
   0.000249126      22.2207
   0.000249181      23.6889
   0.000249187      23.8795
   0.000249234      25.2614
   0.000249261      26.0986
   0.000249288      26.9665
   0.000249335      28.5783
   0.000249342      28.8174
   0.000249396      30.8493
   0.000249409      31.3907
   0.000249449      33.0767
   0.000249483      34.5761
   0.000249503      35.5051
   0.000249532      36.9398
   0.000249557      38.1936
   0.000249593      40.1239
   0.000249602      40.6301
   0.000249629      42.2062
   0.000249665      44.4111
   0.000249669      44.7009
     0.0002497      46.7929
   0.000249714      47.7362
   0.000249736      49.3498
   0.000249759      51.0636
   0.000249783      52.9999
   0.000249803      54.6999
    0.00024983      57.0295
   0.000249848      58.6793
   0.000249862      59.9522
   0.000249893      63.0737
   0.000249924      66.4538
   0.000249936      67.7268
   0.000249956       70.082
   0.000249976      72.5684
   0.000249987      73.9889
   0.000250016      77.8934
   0.000250018      78.2027
    0.00025005      82.7865
   0.000250057      83.8294
   0.000250081      87.7671
   0.000250097      90.4323
   0.000250113      93.1804
   0.000250137      97.7817
   0.000250144      99.0778
   0.000250175      105.534
   0.000250178      106.028
   0.000250207      112.632
   0.000250208      112.905
   0.000250238      120.453
   0.000250265      127.834
   0.000250272      129.803
   0.000250292      135.887
   0.000250305      140.223
   0.000250319      144.693
   0.000250339      151.871
   0.000250346      154.331
   0.000250364      161.586
   0.000250372      164.964
   0.000250389      172.223
   0.000250399      176.688
   0.000250414      183.895
   0.000250426      189.642
    0.00025044      196.654
   0.000250446       200.25
   0.000250464      210.367
   0.000250465      210.703
   0.000250487      224.107
    0.00025049      226.308
   0.000250509      239.124
   0.000250518      245.566
   0.000250531       255.48
    0.00025054      262.544
   0.000250554      273.385
   0.000250563      281.112
   0.000250576      292.973
   0.000250585      301.427
   0.000250599      314.406
   0.000250608      323.658
   0.000250621      337.859
    0.00025063      347.963
   0.000250642      361.917
   0.000250652      374.548
   0.000250662      386.348
   0.000250675      403.618
   0.000250682      412.747
   0.000250695      432.412
   0.000250701       441.33
   0.000250721      472.099
   0.000250723       475.06
   0.000250741      505.472
    0.00025075      522.761
    0.00025076      541.335
   0.000250778      575.344
    0.00025078       579.82
   0.000250803      629.156
   0.000250805      633.684
   0.000250824      675.425
   0.000250833      698.238
   0.000250844      724.887
   0.000250856      757.608
   0.000250864      777.863
    0.00025088      821.675
   0.000250884      834.431
   0.000250903      890.761
   0.000250906      901.687
   0.000250926      965.213
   0.000250933       988.74
   0.000250953      1057.28
    0.00025096      1082.66
    0.00025098      1156.33
   0.000250987      1183.57
   0.000251007      1262.34
   0.000251014       1291.5
   0.000251041      1405.98
   0.000251043      1413.99
   0.000251077      1568.84
   0.000251079      1577.39
   0.000251113      1742.34
   0.000251123      1796.68
   0.000251157      1971.11
   0.000251177      2075.78
    0.00025122      2305.58
   0.000251285      2651.88
    0.00025131      2784.74
   0.000251338      2929.05
   0.000251363      3052.81
   0.000251374      3102.27
   0.000251399      3214.88
    0.00025141      3259.27
   0.000251435      3359.41
   0.000251446      3397.66
   0.000251471       3482.9
   0.000251482      3514.77
   0.000251498      3560.03
    0.00025151      3587.98
   0.000251525       3622.2
   0.000251539      3647.13
   0.000251561      3680.56
   0.000251575      3695.24
   0.000251587      3705.91
   0.000251599         3710
   0.000251617      3713.69
   0.000251629      3709.44
   0.000251654      3695.16
   0.000251665      3683.29
    0.00025168      3663.71
   0.000251694      3638.41
   0.000251719      3588.56
   0.000251727      3566.55
   0.000251758       3482.8
   0.000251761      3472.64
    0.00025179      3374.07
   0.000251794      3360.55
   0.000251822      3248.37
   0.000251837      3187.45
   0.000251856      3101.23
    0.00025188       2992.6
   0.000251894      2924.35
   0.000251944      2671.95
   0.000251958      2599.32
   0.000252044         2154
   0.000252059      2080.54
   0.000252087       1938.6
   0.000252113      1816.09
    0.00025213      1732.27
   0.000252148      1649.85
   0.000252168      1563.17
   0.000252184      1493.37
   0.000252195      1448.98
   0.000252212      1377.91
   0.000252222      1341.47
   0.000252243      1259.52
   0.000252249      1240.16
   0.000252274      1149.76
   0.000252276      1145.28
   0.000252303      1057.42
   0.000252305      1048.78
   0.000252324      990.836
   0.000252336      956.371
   0.000252346      927.931
   0.000252367      872.027
   0.000252368      868.602
   0.000252389      816.451
    0.00025239      813.796
   0.000252411      764.758
   0.000252412      762.783
   0.000252434      716.764
   0.000252434      715.392
   0.000252456      672.284
   0.000252456      671.438
   0.000252478      631.119
   0.000252478      630.728
     0.0002525      593.259
     0.0002525       593.07
   0.000252522       558.64
   0.000252522      557.942
   0.000252544      526.656
   0.000252544      525.532
   0.000252565      497.125
   0.000252567      495.643
   0.000252587      469.868
   0.000252589      468.091
   0.000252609      444.762
   0.000252613       440.99
   0.000252631      421.654
   0.000252639      413.036
   0.000252653      400.231
   0.000252666      387.674
   0.000252675      380.381
   0.000252693      364.649
   0.000252697      361.988
    0.00025272      343.736
   0.000252747      324.739
   0.000252774      307.434
   0.000252801      291.643
   0.000252828      277.359
   0.000252837      272.694
   0.000252854      264.151
   0.000252872       255.78
   0.000252881      251.953
   0.000252908      240.702
   0.000252913      238.865
   0.000252944      227.064
   0.000252946       226.24
    0.00025298      214.776
   0.000253018      203.091
   0.000253025      201.077
   0.000253058       191.88
    0.00025307      188.885
   0.000253099      181.741
   0.000253114      177.979
   0.000253139      172.533
   0.000253159      168.171
   0.000253179      164.137
   0.000253204      159.307
    0.00025322      156.455
   0.000253249      151.261
    0.00025326      149.413
     0.0002533      142.888
   0.000253302      142.532
   0.000253347      135.982
   0.000253356      134.698
   0.000253401      128.769
    0.00025341      127.608
   0.000253455      122.226
   0.000253464      121.172
   0.000253509      116.267
   0.000253518      115.305
   0.000253562      110.892
   0.000253598      107.428
   0.000253616      105.858
    0.00025367      101.235
   0.000253679      100.478
   0.000253724      97.0022
   0.000253744      95.4227
   0.000253784      92.6066
    0.00025381      90.8162
   0.000253851      88.1627
   0.000253897      85.2786
   0.000253919      84.0565
   0.000253985      80.3327
   0.000253986      80.2748
   0.000254053      76.8609
   0.000254072      75.9095
    0.00025412      73.6942
   0.000254159      71.9201
   0.000254187      70.7492
   0.000254247      68.3063
   0.000254255      68.0072
   0.000254327      65.2744
   0.000254334      65.0262
   0.000254406      62.5785
   0.000254434      61.6377
   0.000254484      60.0826
   0.000254546      58.2119
   0.000254563      57.7438
   0.000254641      55.5932
   0.000254658       55.139
   0.000254719      53.6063
    0.00025477      52.3739
   0.000254837      50.8568
   0.000254882      49.8624
   0.000254915       49.184
   0.000255016      47.1796
    0.00025505      46.5217
   0.000255117      45.3424
   0.000255218      43.6008
   0.000255218      43.6008
   0.000255319      42.0537
   0.000255386      41.0367
   0.000255419      40.5759
    0.00025552      39.2129
   0.000255554      38.7644
   0.000255621      37.9481
   0.000255722      36.7393
   0.000255856      35.2875
    0.00025589        34.93
   0.000255991      33.9468
   0.000256058      33.3011
   0.000256125      32.7122
   0.000256259      31.5516
   0.000256265      31.5039
   0.000256394      30.5052
   0.000256455      30.0338
   0.000256528      29.5224
   0.000256646      28.7068
   0.000256663      28.6014
   0.000256797      27.7694
   0.000256931      26.9477
   0.000256954      26.8257
   0.000257111      25.9833
   0.000257217      25.4188
   0.000257268      25.1792
   0.000257424      24.4431
   0.000257503      24.0792
   0.000257581      23.7524
   0.000257738      23.1064
   0.000257805       22.833
   0.000257973      22.2215
   0.000258141      21.6183
   0.000258152      21.5823
   0.000258354      20.9419
   0.000258477      20.5552
   0.000258556      20.3336
   0.000258757      19.7704
   0.000258813      19.6157
   0.000258959      19.2572
    0.00025916      18.7662
   0.000259261      18.5232
   0.000259362      18.3086
   0.000259664       17.673
   0.000259709        17.58
   0.000259911       17.208
   0.000260157      16.7583
   0.000260404      16.3601
   0.000260605      16.0375
    0.00026065       15.973
   0.000260897      15.6217
   0.000261053      15.4003
   0.000261143      15.2869
   0.000261513      14.8247
   0.000261591      14.7276
   0.000261793      14.5065
   0.000262106      14.1658
   0.000262218      14.0452
    0.00026242      13.8535
   0.000262733      13.5581
   0.000262845      13.4534
   0.000263047      13.2859
   0.000263361      13.0276
   0.000263473       12.936
   0.000263674      12.7922
   0.000264145      12.4599
   0.000264414       12.272
   0.000264615      12.1511
   0.000265086       11.872
   0.000265354       11.714
   0.000265556      11.6112
   0.000266026      11.3736
   0.000266295       11.239
   0.000266497      11.1506
   0.000266967       10.946
   0.000267236      10.8299
   0.000267438      10.7531
   0.000267908      10.5751
   0.000268177      10.4741
   0.000268379      10.4083
   0.000268849      10.2558
   0.000269476       10.054
   0.000269521      10.0397
   0.000270103      9.88106
   0.000270731      9.71148
   0.000270955      9.65131
   0.000271358      9.55824
    0.00027203       9.4042
   0.000272388      9.32258
   0.000272747      9.25172
   0.000273464      9.11099
   0.000273822      9.04105
    0.00027418      8.98151
   0.000274897      8.86315
   0.000275614      8.74545
   0.000275973      8.68689
   0.000276331      8.63789
   0.000277048      8.54042
   0.000277765       8.4434
   0.000278123       8.3951
   0.000278482      8.35407
   0.000279198      8.27239
   0.000280274      8.15047
   0.000281349      8.04848
   0.000282424      7.94705
   0.000283141      7.87974
   0.000283499      7.85165
   0.000284575      7.76778
    0.00028565      7.68428
   0.000286008      7.65656
   0.000286776      7.60721
   0.000287928      7.53352
   0.000289079      7.46011
    0.00028954      7.43089
   0.000289655      7.42594
   0.000289885      7.41615
       0.00029       7.4113
       0.00029         45.9
   0.000294091      45.6278
    0.00029824      45.3518
   0.000302448      45.0719
   0.000306715       44.788
   0.000310984       44.504
   0.000311042      44.5004
   0.000315372      44.2277
   0.000315431       44.224
   0.000319821      43.9474
   0.000319881      43.9437
   0.000324333      43.6632
   0.000324394      43.6594
   0.000328909       43.375
    0.00032897      43.3712
   0.000331184      43.2318
   0.000333611      43.0879
   0.000335856       42.955
   0.000338318      42.8091
   0.000340237      42.6954
   0.000340594      42.6756
   0.000345037      42.4285
     0.0003454      42.4083
   0.000349905      42.1577
   0.000350273      42.1373
   0.000354284      41.9142
   0.000354842       41.885
   0.000359282      41.6527
   0.000359848      41.6231
   0.000364351      41.3874
   0.000364925      41.3574
   0.000369491      41.1184
   0.000370073       41.088
   0.000374704      40.8456
   0.000375294      40.8148
   0.000376449      40.7544
   0.000378995      40.6282
    0.00038176       40.499
   0.000384342      40.3784
   0.000387146      40.2474
   0.000389765       40.125
   0.000392608      39.9922
   0.000395264      39.8681
   0.000398147      39.7334
        0.0004      39.6469
    0.00040084      39.6097
   0.000405643       39.397
   0.000406495      39.3592
   0.000411366      39.1436
    0.00041223      39.1053
    0.00041717      38.8866
   0.000418046      38.8478
   0.000423055      38.6259
   0.000423944      38.5866
   0.000429024      38.3617
   0.000429925      38.3218
    0.00043189      38.2348
    0.00043599      38.0631
   0.000437983      37.9796
   0.000442141      37.8055
   0.000444162      37.7209
   0.000447214      37.5932
   0.000450428      37.4688
   0.000453523      37.3491
   0.000455078      37.2889
   0.000459921      37.1109
   0.000461499      37.0529
    0.00046641      36.8724
    0.00046801      36.8136
    0.00047299      36.6305
   0.000474612      36.5709
   0.000479663      36.3853
   0.000481308      36.3248
   0.000484554      36.2055
    0.00048643        36.14
    0.00049139      35.9668
   0.000493293      35.9004
   0.000498323      35.7247
        0.0005      35.6662
   0.000505353      35.4974
   0.000507054      35.4438
   0.000511526      35.3029
   0.000514208      35.2226
   0.000518743      35.0869
   0.000521462      35.0055
   0.000526061      34.8679
   0.000528819      34.7854
   0.000533483      34.6458
    0.00053628      34.5621
   0.000541009      34.4206
   0.000541517      34.4054
   0.000543846      34.3393
   0.000549156      34.1884
   0.000551519      34.1214
   0.000556904      33.9684
   0.000559299      33.9004
   0.000564761      33.7453
    0.00056719      33.6763
   0.000572729       33.519
   0.000573266      33.5037
   0.000579835      33.3323
   0.000581353      33.2951
   0.000588016      33.1315
   0.000589555      33.0937
   0.000596312      32.9279
   0.000597873      32.8896
   0.000604725      32.7214
   0.000606308      32.6825
   0.000613256       32.512
   0.000614862      32.4726
   0.000621908      32.2996
   0.000623536      32.2596
   0.000623574      32.2587
   0.000632371      32.0716
   0.000641293      31.8819
   0.000650341      31.6894
   0.000659516      31.4943
    0.00066882      31.2964
   0.000673537      31.1961
   0.000678256      31.1016
   0.000683039      31.0057
   0.000687825      30.9099
   0.000692676      30.8127
   0.000697529      30.7155
        0.0007       30.666
   0.000702448      30.6209
   0.000709876      30.4841
   0.000712358      30.4384
   0.000719891      30.2997
   0.000722408      30.2533
   0.000723762      30.2284
   0.000730047       30.119
   0.000733973      30.0507
   0.000740347      29.9398
   0.000744328      29.8705
   0.000750792       29.758
    0.00075483      29.6878
   0.000761384      29.5737
   0.000765479      29.5024
   0.000772126      29.3868
   0.000773735      29.3588
   0.000783019       29.205
   0.000784651       29.178
   0.000794066       29.022
   0.000795721      28.9946
        0.0008      28.9237
   0.000806947      28.8177
   0.000811287      28.7514
   0.000818331      28.6439
   0.000822732      28.5767
   0.000823907      28.5588
    0.00083434      28.4069
   0.000835531      28.3895
   0.000846111      28.2355
   0.000847319      28.2179
   0.000858048      28.0616
   0.000859273      28.0438
   0.000870153      27.8854
   0.000871395      27.8673
   0.000873885       27.831
    0.00088243      27.7119
   0.000886214      27.6591
   0.000894879      27.5382
   0.000898717      27.4847
        0.0009      27.4668
   0.000911396      27.3215
   0.000912697      27.3049
   0.000924021      27.1606
   0.000925574      27.1418
   0.000937057      27.0028
   0.000938632      26.9837
   0.000950278      26.8428
   0.000951875      26.8235
   0.000963684      26.6805
   0.000965304      26.6609
    0.00097728       26.516
   0.000978922      26.4961
   0.000991068      26.3491
   0.000992733       26.329
         0.001       26.241
    0.00101411      26.0995
    0.00102842       25.956
    0.00104292      25.8105
    0.00105764      25.6629
     0.0010657      25.5821
    0.00107256      25.5162
    0.00108073      25.4377
    0.00108769      25.3709
    0.00109598      25.2913
    0.00110304      25.2236
    0.00111144      25.1429
     0.0011186      25.0741
    0.00112712      24.9923
    0.00112977      24.9669
    0.00113264      24.9405
    0.00114571      24.8309
    0.00114862      24.8064
    0.00116187      24.6952
    0.00116482      24.6704
    0.00117826      24.5577
    0.00118126      24.5325
    0.00119489      24.4182
    0.00119792      24.3927
    0.00121174      24.2767
    0.00121337      24.2631
    0.00121482      24.2514
    0.00123049      24.1258
    0.00123196      24.1141
    0.00124785      23.9867
    0.00124934      23.9747
    0.00125708      23.9127
    0.00126546      23.8512
    0.00127482      23.7824
    0.00128331        23.72
    0.00129159      23.6592
     0.0012928      23.6507
    0.00130981      23.5318
    0.00131104      23.5231
    0.00132829      23.4025
    0.00132954      23.3938
    0.00134703      23.2715
    0.00134829      23.2626
    0.00136603      23.1386
    0.00136732      23.1296
     0.0013853      23.0039
    0.00138661      22.9947
    0.00139939      22.9053
    0.00140617      22.8598
    0.00141182      22.8219
    0.00141914      22.7773
    0.00143174      22.7006
    0.00143916      22.6554
    0.00145194      22.5776
    0.00145946      22.5318
    0.00146328      22.5086
    0.00147242      22.4551
    0.00148392      22.3879
     0.0014932      22.3337
    0.00150485      22.2655
    0.00151426      22.2105
    0.00152609      22.1415
    0.00153563      22.0857
    0.00154762      22.0156
    0.00155729      21.9591
    0.00156945       21.888
    0.00157926      21.8307
    0.00158217      21.8137
    0.00159881       21.721
    0.00160449      21.6925
    0.00162137      21.6074
    0.00162712      21.5784
    0.00164424      21.4921
    0.00165008      21.4627
    0.00166744      21.3752
    0.00167336      21.3454
    0.00169097      21.2567
    0.00169697      21.2265
    0.00171482      21.1365
     0.0017149      21.1361
    0.00173902      21.0197
    0.00173909      21.0193
    0.00176355      20.9012
    0.00176363      20.9008
    0.00178819      20.7822
    0.00178851      20.7808
    0.00181173      20.6799
    0.00181342      20.6728
    0.00183729       20.573
      0.001839      20.5658
    0.00186321      20.4646
    0.00186495      20.4573
    0.00188949      20.3547
    0.00189126      20.3473
    0.00191615      20.2432
    0.00191794      20.2357
    0.00193516      20.1637
      0.001945      20.1238
    0.00196246      20.0529
    0.00197244      20.0124
    0.00199015      19.9406
         0.002      19.9006
    0.00200027      19.8996
    0.00202822      19.7917
    0.00202849      19.7907
    0.00205683      19.6813
    0.00205711      19.6802
    0.00208585      19.5693
    0.00208613      19.5682
    0.00210398      19.4993
    0.00211528      19.4601
    0.00213366      19.3962
    0.00214512      19.3564
    0.00215115      19.3355
    0.00216376      19.2933
     0.0021815       19.234
    0.00219429      19.1912
    0.00221228      19.1311
    0.00222525      19.0877
    0.00224349      19.0267
    0.00225664      18.9827
    0.00227514      18.9209
    0.00228641      18.8832
    0.00228848      18.8765
    0.00231867      18.7789
    0.00232077      18.7721
    0.00235138      18.6731
    0.00235351      18.6662
    0.00238455      18.5658
    0.00238671      18.5588
     0.0023882       18.554
    0.00241819      18.4671
    0.00242189      18.4564
    0.00244707      18.3834
    0.00245606      18.3583
    0.00248159      18.2871
    0.00249071      18.2616
     0.0025166      18.1894
    0.00252585      18.1635
    0.00255211      18.0903
    0.00256148      18.0641
    0.00258811      17.9898
    0.00259762      17.9632
    0.00262462      17.8879
    0.00263175       17.868
    0.00263427      17.8612
    0.00266888      17.7679
    0.00267143       17.761
    0.00267667      17.7468
    0.00270653      17.6752
    0.00271444      17.6563
    0.00274471      17.5837
    0.00275273      17.5644
    0.00278344      17.4908
    0.00279157      17.4713
    0.00280985      17.4274
    0.00283095      17.3785
    0.00284949      17.3355
    0.00287089      17.2859
    0.00288969      17.2423
     0.0029114      17.1919
    0.00293046      17.1477
    0.00295247      17.0967
     0.0029718      17.0519
    0.00299413      17.0001
         0.003      16.9865
    0.00303637      16.9062
    0.00304232      16.8931
     0.0030792      16.8117
    0.00308525      16.7983
    0.00312265      16.7158
    0.00312877      16.7023
     0.0031667      16.6186
    0.00317291      16.6049
    0.00321138        16.52
    0.00321768      16.5061
    0.00322371      16.4928
    0.00326919       16.405
    0.00331531      16.3161
    0.00336209      16.2258
    0.00340237      16.1481
    0.00340952      16.1347
    0.00345037      16.0581
    0.00345762      16.0445
    0.00349905      15.9668
     0.0035064       15.953
    0.00354842      15.8742
    0.00355587      15.8603
    0.00359094      15.7945
    0.00359848      15.7818
     0.0036416      15.7093
    0.00364925      15.6964
     0.0036891      15.6293
    0.00369298       15.623
    0.00374115      15.5447
    0.00374508      15.5383
    0.00379393      15.4589
    0.00379791      15.4525
    0.00384746      15.3719
     0.0038515      15.3654
    0.00390174      15.2837
    0.00390583      15.2771
    0.00395678      15.1942
    0.00396094      15.1875
         0.004       15.124
    0.00405643      15.0442
    0.00411366      14.9633
     0.0041717      14.8813
    0.00422949      14.7996
    0.00423055      14.7981
    0.00428916      14.7173
    0.00429024      14.7158
    0.00434967      14.6339
    0.00435077      14.6324
    0.00441103      14.5493
    0.00441215      14.5478
    0.00447214      14.4651
    0.00447327      14.4637
    0.00453523      14.3878
    0.00453637      14.3864
    0.00459863        14.31
    0.00459921      14.3094
    0.00466351      14.2329
     0.0046641      14.2322
    0.00472931      14.1547
     0.0047299       14.154
    0.00479603      14.0754
    0.00479663      14.0747
    0.00486369       13.995
     0.0048643      13.9943
    0.00493231      13.9135
    0.00493293      13.9127
         0.005       13.833
    0.00507054      13.7665
    0.00514208       13.699
    0.00521462      13.6306
    0.00528819      13.5612
     0.0053628      13.4909
    0.00543846      13.4195
    0.00547723       13.383
    0.00551518      13.3483
     0.0055545      13.3123
    0.00559299       13.277
    0.00563286      13.2406
     0.0056719      13.2048
    0.00571233      13.1678
    0.00573266      13.1492
    0.00579292      13.1013
    0.00581353      13.0849
    0.00587465      13.0363
    0.00589555      13.0196
    0.00595753      12.9703
    0.00597873      12.9535
         0.006      12.9365
    0.00606308      12.8884
    0.00608465       12.872
    0.00614862      12.8232
    0.00617049      12.8065
    0.00623536      12.7571
    0.00623574      12.7568
    0.00625755      12.7423
    0.00632371      12.6982
    0.00634583      12.6834
    0.00641293      12.6387
    0.00643536      12.6238
    0.00648074      12.5935
    0.00650341      12.5788
    0.00657217      12.5341
    0.00659516      12.5191
    0.00666489      12.4738
     0.0066882      12.4587
    0.00675892      12.4127
    0.00678256      12.3973
    0.00685428      12.3507
    0.00687825      12.3351
    0.00695098      12.2879
    0.00697529      12.2721
         0.007       12.256
    0.00709876      12.2057
    0.00719891      12.1546
    0.00730047      12.1028
    0.00740347      12.0503
    0.00750792      11.9971
    0.00761384      11.9431
    0.00772126      11.8884
    0.00773735      11.8802
    0.00783019      11.8342
    0.00784651      11.8261
    0.00794066      11.7795
    0.00795721      11.7713
         0.008      11.7501
    0.00806947      11.7205
    0.00811287       11.702
    0.00818331      11.6719
    0.00822732      11.6532
    0.00823907      11.6482
     0.0083434       11.605
    0.00835531         11.6
    0.00846111      11.5562
    0.00847319      11.5512
    0.00858048      11.5068
    0.00859273      11.5017
    0.00870153      11.4566
    0.00871396      11.4515
     0.0088243      11.4058
    0.00883689      11.4006
    0.00894879      11.3542
    0.00896157      11.3489
         0.009       11.333
    0.00912697      11.2892
    0.00925574      11.2448
    0.00938632      11.1997
    0.00951875       11.154
    0.00965304      11.1077
    0.00978922      11.0607
    0.00992733      11.0131
          0.01       10.988
     0.0101411      10.9481
     0.0102842      10.9076
     0.0104292      10.8665
     0.0105764      10.8249
     0.0107256      10.7827
     0.0108769      10.7398
     0.0109051      10.7319
     0.0110589      10.6943
      0.011215      10.6562
     0.0113732      10.6176
     0.0115336      10.5784
     0.0116963      10.5387
     0.0118614      10.4984
     0.0120287      10.4575
     0.0121607      10.4253
     0.0121984      10.4163
     0.0123323      10.3845
     0.0123705      10.3754
     0.0125063      10.3431
      0.012545      10.3339
     0.0126827      10.3011
     0.0126905      10.2993
     0.0128616      10.2644
     0.0128695      10.2628
     0.0130431      10.2275
     0.0130511      10.2259
     0.0132271      10.1901
     0.0132352      10.1884
     0.0133221      10.1707
      0.013422      10.1509
       0.01351      10.1335
     0.0136113      10.1134
     0.0137006      10.0957
     0.0138034      10.0754
     0.0138939      10.0574
     0.0139981      10.0368
     0.0140899      10.0186
     0.0141956      9.99766
     0.0142887       9.9792
     0.0143959      9.95797
     0.0144903      9.93926
      0.014599      9.91773
     0.0146947      9.89875
     0.0147464      9.88851
     0.0148049      9.87721
     0.0148384      9.87075
     0.0149545      9.85118
     0.0150477      9.83544
     0.0151654      9.81559
       0.01526      9.79964
     0.0153794      9.77951
     0.0154753      9.76333
     0.0155964      9.74292
     0.0156937      9.72651
     0.0158164      9.70581
     0.0159151      9.68916
     0.0160395      9.66817
     0.0161396       9.6513
     0.0162658      9.63001
     0.0163673      9.61289
     0.0164419      9.60031
     0.0165078      9.58949
     0.0166739       9.5653
     0.0167407      9.55557
     0.0169091      9.53104
     0.0169768      9.52117
     0.0171477      9.49629
     0.0172163      9.48629
     0.0173896      9.46106
     0.0174592      9.45092
     0.0176349      9.42533
     0.0177056      9.41504
     0.0178837       9.3891
     0.0179554      9.37866
     0.0181339      9.35266
     0.0182087      9.34204
     0.0183897      9.31631
     0.0184656      9.30553
     0.0186492      9.27944
     0.0187261      9.26851
     0.0187607      9.26359
     0.0189123      9.24407
     0.0190254       9.2295
     0.0191791      9.20971
     0.0192938      9.19494
     0.0194497      9.17487
      0.019566      9.15989
     0.0197241      9.13953
     0.0198421      9.12434
          0.02        9.104
     0.0202822      9.07668
     0.0205683      9.04898
     0.0208585      9.02089
     0.0211528       8.9924
     0.0214512      8.96351
     0.0217538      8.93421
     0.0220607       8.9045
     0.0221336      8.89744
      0.022372      8.87494
     0.0224459      8.86796
     0.0226876      8.84513
     0.0227626      8.83805
     0.0230077      8.81491
     0.0230837      8.80773
     0.0233323      8.78426
     0.0234094      8.77698
     0.0236615      8.75318
     0.0237396       8.7458
      0.023882      8.73236
     0.0242189      8.70596
     0.0245606      8.67919
     0.0249071      8.65204
     0.0252585       8.6245
     0.0256148      8.59658
     0.0259762      8.56827
     0.0263427      8.53955
     0.0267143      8.51043
     0.0267667      8.50632
     0.0270912      8.48166
     0.0271444      8.47762
     0.0274734       8.4526
     0.0275273       8.4485
     0.0278038      8.42749
     0.0279157      8.41988
     0.0281961      8.40082
     0.0283095      8.39311
     0.0285939      8.37378
     0.0287089      8.36596
     0.0289973      8.34636
      0.029114      8.33843
     0.0294064      8.31855
     0.0295247      8.31051
     0.0298212      8.29035
     0.0299413      8.28219
          0.03       8.2782
     0.0304232      8.25732
     0.0308525      8.23614
     0.0312877      8.21467
     0.0317292      8.19289
     0.0321768       8.1708
     0.0322371      8.16783
     0.0326307      8.14898
     0.0326919      8.14606
     0.0330911      8.12695
     0.0331531      8.12398
      0.033558      8.10461
     0.0336209       8.1016
     0.0340314      8.08195
     0.0340952      8.07889
     0.0345115      8.05897
     0.0345762      8.05587
      0.034641      8.05277
      0.035064      8.03494
     0.0351297      8.03217
     0.0355587      8.01409
     0.0356254      8.01128
     0.0359094      7.99931
      0.036128      7.99044
      0.036416      7.97874
     0.0366377      7.96974
     0.0369298      7.95788
     0.0371546      7.94875
     0.0374508      7.93672
     0.0376787      7.92746
     0.0379791      7.91526
     0.0382103      7.90588
      0.038515      7.89351
     0.0387494      7.88399
     0.0390583      7.87144
     0.0392961      7.86178
     0.0396094      7.84906
     0.0398505      7.83927
          0.04       7.8332
     0.0405643      7.81663
     0.0411366      7.79983
      0.041717      7.78279
     0.0423055      7.76551
     0.0429024      7.74799
     0.0435077      7.73022
     0.0441215       7.7122
     0.0447214      7.69459
      0.044744      7.69396
     0.0453523      7.67683
     0.0453752      7.67619
     0.0459921      7.65882
     0.0460154      7.65817
      0.046641      7.64055
     0.0466646      7.63989
      0.047299      7.62203
     0.0473229      7.62136
     0.0479663      7.60325
     0.0479906      7.60256
      0.048643       7.5842
     0.0486676      7.58351
     0.0493293      7.56488
     0.0493542      7.56418
          0.05        7.546
     0.0507054      7.53126
     0.0514208      7.51632
     0.0521462      7.50116
     0.0528819      7.48579
      0.053628       7.4702
     0.0543846       7.4544
     0.0547723       7.4463
     0.0551518      7.43865
      0.055545      7.43073
     0.0559299      7.42298
     0.0563286      7.41495
      0.056719      7.40708
     0.0571233      7.39894
     0.0575192      7.39097
     0.0579292      7.38271
     0.0583307      7.37462
     0.0587465      7.36625
     0.0591536      7.35805
     0.0595753      7.34955
     0.0599882      7.34124
          0.06        7.341
     0.0608465      7.32764
     0.0617049      7.31408
     0.0625755      7.30034
     0.0634583       7.2864
     0.0643536      7.27227
     0.0652615      7.25794
     0.0661822       7.2434
     0.0671159      7.22866
     0.0673537      7.22491
     0.0680628      7.21415
     0.0683039       7.2105
     0.0690231      7.19959
     0.0692676      7.19588
     0.0699968      7.18482
          0.07      7.18478
     0.0702448      7.18179
     0.0709876      7.17274
     0.0712358      7.16972
     0.0719891      7.16054
     0.0722408      7.15747
     0.0723762      7.15582
     0.0730047      7.14849
     0.0733973       7.1439
     0.0740347      7.13646
     0.0744328      7.13181
     0.0750792      7.12426
      0.075483      7.11955
     0.0761384      7.11189
     0.0765479      7.10711
     0.0772126      7.09935
     0.0776278       7.0945
     0.0783019      7.08663
      0.078723      7.08171
     0.0794066      7.07373
     0.0798337      7.06874
          0.08       7.0668
     0.0805269      7.06093
     0.0811287      7.05422
      0.081663      7.04827
     0.0822732      7.04147
     0.0828151      7.03543
      0.083434      7.02854
     0.0839835      7.02242
     0.0846111      7.01542
     0.0848528      7.01273
     0.0858048      7.00411
     0.0860499      7.00189
     0.0870153      6.99315
     0.0872639       6.9909
     0.0873885      6.98977
     0.0884951       6.9802
     0.0886214       6.9791
     0.0897436      6.96939
     0.0898717      6.96829
     0.0910097      6.95844
     0.0911396      6.95731
     0.0922937      6.94733
     0.0924254      6.94619
     0.0935958      6.93606
     0.0937294      6.93491
     0.0948683      6.92505
     0.0949163      6.92465
     0.0962067      6.91382
     0.0962554      6.91342
     0.0975641      6.90244
     0.0976133      6.90202
     0.0989405      6.89089
     0.0989905      6.89047
           0.1        6.882
      0.101411      6.87313
      0.102842      6.86414
      0.104292      6.85502
      0.105764      6.84577
      0.107256       6.8364
      0.108769      6.82689
      0.109545      6.82201
      0.110304      6.81741
       0.11109      6.81264
       0.11186      6.80797
      0.112657      6.80313
      0.113438       6.7984
      0.114247      6.79349
      0.115038      6.78869
      0.115858      6.78372
      0.116661      6.77885
      0.117493       6.7738
      0.118307      6.76886
      0.119151      6.76375
      0.119976      6.75874
          0.12       6.7586
      0.121669      6.74915
      0.121693      6.74901
      0.123386      6.73943
       0.12341      6.73929
      0.125126      6.72957
      0.125151      6.72943
      0.126892      6.71958
      0.126917      6.71943
      0.128682      6.70944
      0.128707       6.7093
      0.129615      6.70416
      0.130523       6.7002
      0.131443      6.69619
      0.132364      6.69217
      0.133298       6.6881
      0.134232      6.68403
      0.134707      6.68196
      0.135178      6.67996
      0.136608      6.67391
      0.137086      6.67188
      0.138535      6.66574
       0.13902      6.66369
          0.14      6.65953
      0.140981      6.65565
      0.141975      6.65173
       0.14297       6.6478
      0.143978      6.64381
      0.144987      6.63982
      0.146009      6.63578
      0.147032      6.63174
      0.148069      6.62765
      0.149107      6.62355
      0.150158      6.61939
       0.15121      6.61523
      0.152277      6.61102
      0.153344       6.6068
      0.154425      6.60253
      0.155507      6.59825
      0.156604      6.59392
      0.157701      6.58958
      0.158813      6.58519
      0.159926      6.58079
          0.16       6.5805
      0.162257       6.5742
      0.164546      6.56782
      0.166868      6.56134
      0.169222      6.55477
       0.17161      6.54811
      0.174031      6.54136
      0.176486       6.5345
      0.178976      6.52756
          0.18       6.5247
      0.181501       6.5208
      0.182539       6.5181
      0.184061      6.51414
      0.185115       6.5114
      0.186658      6.50739
      0.187726      6.50461
      0.189292      6.50054
      0.190375      6.49773
      0.191962       6.4936
      0.193061      6.49074
       0.19467      6.48656
      0.195784      6.48366
      0.197417      6.47942
      0.198547      6.47648
           0.2       6.4727
      0.202822      6.46794
      0.205683      6.46312
      0.208585      6.45823
      0.211528      6.45327
      0.214512      6.44823
      0.217538      6.44313
      0.220607      6.43796
       0.22372      6.43271
      0.226876      6.42739
      0.230077      6.42199
      0.233323      6.41652
      0.236615      6.41097
      0.239953      6.40534
      0.243338      6.39963
      0.246771      6.39385
          0.25       6.3884
           0.3       6.3426
           0.3      6.34255
      0.349984        6.308
          0.35      6.30795
      0.357023      6.26633
      0.364434      6.27075
      0.373674      6.27788
      0.385256      6.28814
           0.4      6.30376
      0.405643      6.29986
       0.43025      6.30336
          0.45      6.30711
      0.456349       6.3032
           0.5      6.31636
      0.510631      6.31457
          0.55      6.33105
       0.55388      6.33116
      0.565629      6.33242
           0.6      6.34913
      0.642245      6.36113
          0.65      6.36563
       0.65917      6.36919
       0.68597       6.3806
           0.7      6.38657
      0.704938      6.38795
          0.75      6.40235
      0.765946      6.40569
      0.782193       6.4095
           0.8      6.41626
      0.811287      6.41943
          0.85      6.43119
      0.853502      6.42075
      0.886186       6.4376
           0.9      6.44837
      0.906349      6.44652
          0.95      6.46237
             1      6.46708
       1.00238      6.46639
       1.14247      6.45659
           1.2      6.45554
       1.20846      6.44714
        1.2582      6.38379
       1.27928      6.37426
       1.37571      6.39038
           1.4      6.39872
       1.44976       6.3627
       1.53919      6.31371
       1.56139       6.3036
           1.6      6.28608
       1.63402      6.22738
       1.64195      6.21364
       1.69649      6.16483
       1.70378      6.16035
       1.71386      6.15814
       1.79276      6.15478
           1.8      6.15528
             2      5.99651
       2.01411      5.98454
       2.03162      5.96937
           2.2      5.83433
       2.21552      5.82145
       2.24041      5.80049
           2.4      5.67441
       2.43386      5.64723
        2.4682      5.61937
           2.6      5.52052
       2.63668      5.49301
       2.65528      5.47892
           2.8      5.37844
       2.85953      5.33703
             3      5.24668
       3.02116      5.23328
       3.04232      5.21965
       3.20808      5.12372
       3.23056      5.11097
          3.25      5.10115
       3.27293      5.08887
       3.44439      4.99885
       3.49211      4.97716
           3.5      4.97346
       3.59945       4.9271
        3.6484      4.90593
          3.75      4.86259
       3.77645      4.85055
       3.96374      4.77958
             4      4.76599
       4.02822      4.75482
       4.15219      4.71454
          4.25      4.68336
       4.27998      4.67289
       4.40406      4.63758
           4.5      4.61066
       4.53174      4.60106
       4.62331      4.57881
          4.75      4.54888
       4.78351      4.54012
       4.82012      4.53233
        4.8734      4.52099
             5      4.49463
       5.12057      4.47441
        5.2129      4.45932
       5.35453       4.4368
           5.5      4.41427
        5.5388      4.41021
       5.62095      4.40145
       5.74847      4.38837
       5.83707      4.37958
        5.9726      4.36655
       5.99115      4.36476
             6      4.36437
       6.12127      4.35909
        6.2489       4.3539
       6.33745      4.35054
       6.47268      4.34572
           6.5      4.34476
       6.54585      4.34341
       6.62155      4.34375
       6.74928      4.34463
       6.83777      4.34541
       6.99449       4.3471
             7      4.34716
       7.06279      4.34813
       7.09876      4.34869
       7.12179      4.34956
        7.2496      4.35463
       7.33805      4.35827
       7.44562      4.36283
           7.5      4.36517
       7.56075       4.3687
       7.65946      4.37452
       7.66825      4.37512
       7.78512      4.38331
       7.89183       4.3909
             8      4.39869
       8.12217      4.40804
       8.25012      4.41794
       8.33851      4.42485
       8.44582      4.43329
           8.5      4.43759
       8.52742      4.43987
       8.56095      4.44266
       8.66866      4.45168
       8.78557      4.46153
       8.92795      4.47359
             9      4.47973
       9.12248       4.4906
       9.21543      4.49888
       9.35663       4.5115
           9.5      4.52436
       9.66899      4.54014
       9.70199      4.54323
       9.78593      4.55021
       9.96406      4.56509
            10      4.56809
       10.1411      4.57232
       10.1727      4.57327
       10.2842      4.57662
       10.3163      4.57759
       10.3196      4.57769
       10.4292      4.58102
       10.4652      4.58211
       10.4856      4.58273
       10.5682      4.58524
       10.5764       4.5862
       10.6336      4.59293
       10.6665      4.59681
       10.7256      4.60377
        10.817      4.61453
        10.832      4.61629
       10.8769      4.62159
       10.9848      4.63432
            11      4.63611
       11.1552      4.64241
       11.2266      4.64531
       11.3126       4.6488
        11.385      4.65175
       11.4152      4.65298
       11.4722       4.6553
       11.5762      4.65955
       11.6207      4.66136
        11.634      4.66191
       11.7846      4.66806
       11.7982      4.66862
       11.8722      4.67164
       11.9646      4.67543
            12      4.67688
       12.1693      4.67941
       12.2425       4.6805
        12.341      4.68198
       12.4153      4.68309
       12.4277      4.68328
       12.5151      4.68459
        12.603      4.68592
       12.6917      4.68725
       12.7106      4.68754
       12.8707      4.68995
       12.8899      4.69024
            13      4.69191
       13.1834      4.68968
       13.2431      4.68895
       13.3694      4.68742
       13.4299      4.68669
        13.558      4.68514
       13.6163      4.68443
       13.7493      4.68283
       13.8084      4.68211
       13.9433      4.68049
            14       4.6798
       14.1975      4.67271
       14.2436      4.67106
       14.3978      4.66552
       14.4445      4.66385
       14.6009      4.65824
       14.6169      4.65767
       14.8069      4.65085
       14.8231      4.65027
       14.8356      4.64983
            15      4.64393
       15.0322      4.64214
       15.2116      4.63218
        15.244      4.63038
       15.4262      4.62026
        15.459      4.61844
       15.6174      4.60964
       15.6439      4.60817
       15.8378      4.59741
       15.8646      4.59592
            16      4.58841
       16.2257      4.57225
       16.2443      4.57092
       16.4546      4.55588
       16.4735      4.55453
       16.6179       4.5442
       16.6868      4.53928
       16.8523      4.52744
       16.9222      4.52244
            17      4.51688
       17.0901      4.50944
       17.2398      4.49708
       17.2447      4.49668
       17.4831        4.477
        17.488       4.4766
       17.6183      4.46584
       17.7297      4.45664
       17.8668      4.44533
       17.9799        4.436
            18      4.43434
       18.1189       4.4239
       18.1221      4.42362
       18.2539      4.41204
       18.3777      4.40117
       18.4309       4.3965
       18.5115      4.38942
       18.5979      4.38184
       18.6909      4.37368
       18.7133      4.37172
       18.7726      4.36652
       18.9773      4.34858
            19      4.34658
        19.245      4.32366
       19.2452      4.32364
       19.2681       4.3215
       19.5167      4.29824
       19.5399      4.29607
       19.5719      4.29308
       19.8156      4.27028
        19.848      4.26725
       19.8563      4.26648
            20      4.25303
//
#-------------------------------------------------------------------------------
